#K-Path(1/A) Energy-Level(eV)
# NKPTS & NBANDS: 400  16
# Band-Index    1
   0.00000    -11.568883
   0.04503    -11.560693
   0.09007    -11.536116
   0.13510    -11.495216
   0.18014    -11.438084
   0.22517    -11.364822
   0.27021    -11.275617
   0.31524    -11.170650
   0.36027    -11.050214
   0.40531    -10.914600
   0.45034    -10.764179
   0.49538    -10.599432
   0.54041    -10.420963
   0.58545    -10.229431
   0.63048    -10.025694
   0.67552     -9.810853
   0.72055     -9.586228
   0.76558     -9.353463
   0.81062     -9.114656
   0.85565     -8.872504
   0.90069     -8.630261
   0.94572     -8.391975
   0.99076     -8.162480
   1.03579     -7.947162
   1.08082     -7.751405
   1.12586     -7.579884
   1.17089     -7.435642
   1.21593     -7.319307
   1.26096     -7.229359
   1.30600     -7.162519
   1.35103     -7.114787
   1.39607     -7.082313
   1.44110     -7.060431
   1.48613     -7.047378
   1.53117     -7.040405
   1.57620     -7.036794
   1.62124     -7.035394
   1.66627     -7.035127
   1.71131     -7.035239
   1.75634     -7.035322
   1.75634     -7.035322
   1.77886     -7.034341
   1.80137     -7.031402
   1.82389     -7.026515
   1.84641     -7.019694
   1.86893     -7.010961
   1.89144     -7.000346
   1.91396     -6.987883
   1.93648     -6.973614
   1.95899     -6.957586
   1.98151     -6.939724
   2.00403     -6.920370
   2.02655     -6.899447
   2.04906     -6.877032
   2.07158     -6.853214
   2.09410     -6.828088
   2.11662     -6.801610
   2.13913     -6.774204
   2.16165     -6.745833
   2.18417     -6.716632
   2.20668     -6.686749
   2.22920     -6.656341
   2.25172     -6.625579
   2.27424     -6.594679
   2.29675     -6.563774
   2.31927     -6.533106
   2.34179     -6.502899
   2.36430     -6.473388
   2.38682     -6.444825
   2.40934     -6.417468
   2.43186     -6.391586
   2.45437     -6.367450
   2.47689     -6.345334
   2.49941     -6.325503
   2.52192     -6.308215
   2.54444     -6.293704
   2.56696     -6.282179
   2.58948     -6.273813
   2.61199     -6.268735
   2.63451     -6.266728
   2.63451     -6.266728
   2.65043     -6.267145
   2.66635     -6.267840
   2.68228     -6.268972
   2.69820     -6.270528
   2.71412     -6.272492
   2.73004     -6.274848
   2.74596     -6.277583
   2.76189     -6.280685
   2.77781     -6.284138
   2.79373     -6.287930
   2.80965     -6.292048
   2.82557     -6.296478
   2.84150     -6.301209
   2.85742     -6.306226
   2.87334     -6.311514
   2.88926     -6.317056
   2.90519     -6.322833
   2.92111     -6.328824
   2.93703     -6.335004
   2.95295     -6.341341
   2.96887     -6.347803
   2.98480     -6.354348
   3.00072     -6.360932
   3.01664     -6.367506
   3.03256     -6.374017
   3.04848     -6.380408
   3.06441     -6.386619
   3.08033     -6.392438
   3.09625     -6.398125
   3.11217     -6.403460
   3.12809     -6.408389
   3.14402     -6.412860
   3.15994     -6.416830
   3.17586     -6.420258
   3.19178     -6.423111
   3.20770     -6.425359
   3.22363     -6.426980
   3.23955     -6.428013
   3.25547     -6.428340
   3.25547     -6.428340
   3.30324     -6.355040
   3.35100     -6.284062
   3.39877     -6.219405
   3.44653     -6.168122
   3.49430     -6.138753
   3.54207     -6.134729
   3.58983     -6.155560
   3.63760     -6.200182
   3.68537     -6.269774
   3.73313     -6.366081
   3.78090     -6.490209
   3.82866     -6.641767
   3.87643     -6.820799
   3.92420     -7.024827
   3.97196     -7.250691
   4.01973     -7.494478
   4.06749     -7.751777
   4.11526     -8.018169
   4.16303     -8.289523
   4.21079     -8.562107
   4.25856     -8.832622
   4.30633     -9.098414
   4.35409     -9.356922
   4.40186     -9.606285
   4.44962     -9.844849
   4.49739    -10.071286
   4.54516    -10.284431
   4.59292    -10.483300
   4.64069    -10.667095
   4.68846    -10.835164
   4.73622    -10.986883
   4.78399    -11.121767
   4.83175    -11.239452
   4.87952    -11.339567
   4.92729    -11.421823
   4.97505    -11.486025
   5.02282    -11.532021
   5.07058    -11.559663
   5.11835    -11.568883
   5.11835    -11.568883
   5.15735    -11.562749
   5.19635    -11.544300
   5.23535    -11.513598
   5.27435    -11.470710
   5.31335    -11.415727
   5.35236    -11.348724
   5.39136    -11.269821
   5.43036    -11.179176
   5.46936    -11.077009
   5.50836    -10.963535
   5.54736    -10.839011
   5.58636    -10.703761
   5.62536    -10.558194
   5.66436    -10.402768
   5.70336    -10.238005
   5.74236    -10.064557
   5.78137     -9.883234
   5.82037     -9.694998
   5.85937     -9.500966
   5.89837     -9.302528
   5.93737     -9.101374
   5.97637     -8.899555
   6.01537     -8.699413
   6.05437     -8.503700
   6.09337     -8.315494
   6.13237     -8.138004
   6.17137     -7.974255
   6.21038     -7.826793
   6.24938     -7.697355
   6.28838     -7.586590
   6.32738     -7.494026
   6.36638     -7.418367
   6.40538     -7.357824
   6.44438     -7.310452
   6.48338     -7.274366
   6.52238     -7.247941
   6.56138     -7.230785
   6.60038     -7.220446
   6.63939     -7.217066
   6.63939     -7.217066
   6.66696     -7.215158
   6.69454     -7.209441
   6.72212     -7.199941
   6.74970     -7.186702
   6.77727     -7.169784
   6.80485     -7.149266
   6.83243     -7.125033
   6.86001     -7.097648
   6.88759     -7.066868
   6.91516     -7.033160
   6.94274     -6.996550
   6.97032     -6.957252
   6.99790     -6.915508
   7.02547     -6.871587
   7.05305     -6.825801
   7.08063     -6.778424
   7.10821     -6.729750
   7.13579     -6.680670
   7.16336     -6.631404
   7.19094     -6.582514
   7.21852     -6.534626
   7.24610     -6.488433
   7.27368     -6.444653
   7.30125     -6.404179
   7.32883     -6.367794
   7.35641     -6.336331
   7.38399     -6.310557
   7.41156     -6.291125
   7.43914     -6.278507
   7.46672     -6.272666
   7.49430     -6.274029
   7.52188     -6.281773
   7.54945     -6.294867
   7.57703     -6.312355
   7.60461     -6.332932
   7.63219     -6.355538
   7.65976     -6.379340
   7.68734     -6.403732
   7.71492     -6.428340
   7.71492     -6.428340
   7.73084     -6.428013
   7.74676     -6.426980
   7.76269     -6.425359
   7.77861     -6.423111
   7.79453     -6.420258
   7.81045     -6.416830
   7.82637     -6.412860
   7.84230     -6.408389
   7.85822     -6.403460
   7.87414     -6.398125
   7.89006     -6.392438
   7.90598     -6.386619
   7.92191     -6.380408
   7.93783     -6.374017
   7.95375     -6.367506
   7.96967     -6.360932
   7.98559     -6.354348
   8.00152     -6.347803
   8.01744     -6.341341
   8.03336     -6.335004
   8.04928     -6.328824
   8.06521     -6.322833
   8.08113     -6.317056
   8.09705     -6.311514
   8.11297     -6.306226
   8.12889     -6.301209
   8.14482     -6.296478
   8.16074     -6.292048
   8.17666     -6.287930
   8.19258     -6.284138
   8.20850     -6.280685
   8.22443     -6.277583
   8.24035     -6.274848
   8.25627     -6.272492
   8.27219     -6.270528
   8.28811     -6.268972
   8.30404     -6.267840
   8.31996     -6.267145
   8.33588     -6.266728
   8.33588     -6.266728
   8.36772     -6.265530
   8.39957     -6.260966
   8.43141     -6.253339
   8.46326     -6.242654
   8.49510     -6.228917
   8.52694     -6.212145
   8.55879     -6.192352
   8.59063     -6.169562
   8.62248     -6.143812
   8.65432     -6.115146
   8.68617     -6.083600
   8.71801     -6.049460
   8.74985     -6.027098
   8.78170     -6.084208
   8.81354     -6.143374
   8.84539     -6.204260
   8.87723     -6.266541
   8.90907     -6.329737
   8.94092     -6.393506
   8.97276     -6.457448
   9.00461     -6.521154
   9.03645     -6.584216
   9.06829     -6.646221
   9.10014     -6.706976
   9.13198     -6.765697
   9.16383     -6.822175
   9.19567     -6.876039
   9.22751     -6.926938
   9.25936     -6.974543
   9.29120     -7.018552
   9.32305     -7.059233
   9.35489     -7.095275
   9.38674     -7.126964
   9.41858     -7.154106
   9.45042     -7.176661
   9.48227     -7.194259
   9.51411     -7.206904
   9.54596     -7.214522
   9.57780     -7.217066
   9.57780     -7.217066
   9.60538     -7.215158
   9.63296     -7.209441
   9.66053     -7.199941
   9.68811     -7.186702
   9.71569     -7.169784
   9.74327     -7.149266
   9.77084     -7.125033
   9.79842     -7.097648
   9.82600     -7.066868
   9.85358     -7.033160
   9.88116     -6.996550
   9.90873     -6.957252
   9.93631     -6.915508
   9.96389     -6.871587
   9.99147     -6.825801
  10.01904     -6.778424
  10.04662     -6.729750
  10.07420     -6.680670
  10.10178     -6.631404
  10.12936     -6.582514
  10.15693     -6.534626
  10.18451     -6.488433
  10.21209     -6.444653
  10.23967     -6.404179
  10.26725     -6.367794
  10.29482     -6.336331
  10.32240     -6.310557
  10.34998     -6.291125
  10.37756     -6.278507
  10.40513     -6.272666
  10.43271     -6.274029
  10.46029     -6.281773
  10.48787     -6.294867
  10.51545     -6.312355
  10.54302     -6.332932
  10.57060     -6.355538
  10.59818     -6.379340
  10.62576     -6.403732
  10.65333     -6.428340
  10.65333     -6.428340
  10.66926     -6.452902
  10.68518     -6.477398
  10.70110     -6.501835
  10.71702     -6.526139
  10.73294     -6.550268
  10.74887     -6.574179
  10.76479     -6.597836
  10.78071     -6.621200
  10.79663     -6.644234
  10.81255     -6.666904
  10.82848     -6.689174
  10.84440     -6.711009
  10.86032     -6.732375
  10.87624     -6.753241
  10.89217     -6.773573
  10.90809     -6.793681
  10.92401     -6.812870
  10.93993     -6.831434
  10.95585     -6.849343
  10.97178     -6.866570
  10.98770     -6.883086
  11.00362     -6.898865
  11.01954     -6.913881
  11.03546     -6.928252
  11.05139     -6.941687
  11.06731     -6.954291
  11.08323     -6.966045
  11.09915     -6.976930
  11.11507     -6.986929
  11.13100     -6.996024
  11.14692     -7.004201
  11.16284     -7.011447
  11.17876     -7.017750
  11.19468     -7.023101
  11.21061     -7.027491
  11.22653     -7.030913
  11.24245     -7.033361
  11.25837     -7.034831
  11.27429     -7.035322
 
# Band-Index    2
  11.27429     -6.543233
  11.25837     -6.542940
  11.24245     -6.542061
  11.22653     -6.540596
  11.21061     -6.538547
  11.19468     -6.535916
  11.17876     -6.532707
  11.16284     -6.528923
  11.14692     -6.524567
  11.13100     -6.519647
  11.11507     -6.514167
  11.09915     -6.508135
  11.08323     -6.501559
  11.06731     -6.494447
  11.05139     -6.486808
  11.03546     -6.478651
  11.01954     -6.469909
  11.00362     -6.460758
  10.98770     -6.451125
  10.97178     -6.441026
  10.95585     -6.430476
  10.93993     -6.419494
  10.92401     -6.408097
  10.90809     -6.396305
  10.89217     -6.384251
  10.87624     -6.371752
  10.86032     -6.358925
  10.84440     -6.345795
  10.82848     -6.332390
  10.81255     -6.318737
  10.79663     -6.304870
  10.78071     -6.290821
  10.76479     -6.276624
  10.74887     -6.262315
  10.73294     -6.247932
  10.71702     -6.233511
  10.70110     -6.219091
  10.68518     -6.204709
  10.66926     -6.190473
  10.65333     -6.176276
  10.65333     -6.176276
  10.62576     -6.161771
  10.59818     -6.146639
  10.57060     -6.130789
  10.54302     -6.114057
  10.51545     -6.096125
  10.48787     -6.076515
  10.46029     -6.054825
  10.43271     -6.030195
  10.40513     -6.002428
  10.37756     -5.971493
  10.34998     -5.937562
  10.32240     -5.901004
  10.29482     -5.862217
  10.26725     -5.821600
  10.23967     -5.779542
  10.21209     -5.736240
  10.18451     -5.692513
  10.15693     -5.648464
  10.12936     -5.604525
  10.10178     -5.561098
  10.07420     -5.518571
  10.04662     -5.477307
  10.01904     -5.437639
   9.99147     -5.400064
   9.96389     -5.364412
   9.93631     -5.331007
   9.90873     -5.299957
   9.88116     -5.271322
   9.85358     -5.245145
   9.82600     -5.221449
   9.79842     -5.200243
   9.77084     -5.181526
   9.74327     -5.165326
   9.71569     -5.151587
   9.68811     -5.140341
   9.66053     -5.131592
   9.63296     -5.125344
   9.60538     -5.121598
   9.57780     -5.120350
   9.57780     -5.120350
   9.54596     -5.122013
   9.51411     -5.127012
   9.48227     -5.135355
   9.45042     -5.147052
   9.41858     -5.162101
   9.38674     -5.180538
   9.35489     -5.202360
   9.32305     -5.227587
   9.29120     -5.256182
   9.25936     -5.288211
   9.22751     -5.323584
   9.19567     -5.362163
   9.16383     -5.403747
   9.13198     -5.448046
   9.10014     -5.494660
   9.06829     -5.542863
   9.03645     -5.592614
   9.00461     -5.643031
   8.97276     -5.693537
   8.94092     -5.743600
   8.90907     -5.792738
   8.87723     -5.840535
   8.84539     -5.886585
   8.81354     -5.930700
   8.78170     -5.972966
   8.74985     -6.012495
   8.71801     -5.972396
   8.68617     -5.920436
   8.65432     -5.871552
   8.62248     -5.826047
   8.59063     -5.784242
   8.55879     -5.746437
   8.52694     -5.712930
   8.49510     -5.684001
   8.46326     -5.659915
   8.43141     -5.640907
   8.39957     -5.627173
   8.36772     -5.618863
   8.33588     -5.615965
   8.33588     -5.615965
   8.31996     -5.640482
   8.30404     -5.664933
   8.28811     -5.689363
   8.27219     -5.713716
   8.25627     -5.737935
   8.24035     -5.761958
   8.22443     -5.785728
   8.20850     -5.809184
   8.19258     -5.832268
   8.17666     -5.854918
   8.16074     -5.877073
   8.14482     -5.898677
   8.12889     -5.919674
   8.11297     -5.940007
   8.09705     -5.959627
   8.08113     -5.978483
   8.06521     -5.996532
   8.04928     -6.013737
   8.03336     -6.030066
   8.01744     -6.045492
   8.00152     -6.059999
   7.98559     -6.073573
   7.96967     -6.086214
   7.95375     -6.097925
   7.93783     -6.108717
   7.92191     -6.118606
   7.90598     -6.127614
   7.89006     -6.135644
   7.87414     -6.142981
   7.85822     -6.149516
   7.84230     -6.155278
   7.82637     -6.160293
   7.81045     -6.164585
   7.79453     -6.168177
   7.77861     -6.171088
   7.76269     -6.173334
   7.74676     -6.174928
   7.73084     -6.175959
   7.71492     -6.176276
   7.71492     -6.176276
   7.68734     -6.161771
   7.65976     -6.146639
   7.63219     -6.130789
   7.60461     -6.114057
   7.57703     -6.096125
   7.54945     -6.076515
   7.52188     -6.054825
   7.49430     -6.030195
   7.46672     -6.002428
   7.43914     -5.971493
   7.41156     -5.937562
   7.38399     -5.901004
   7.35641     -5.862217
   7.32883     -5.821600
   7.30125     -5.779542
   7.27368     -5.736240
   7.24610     -5.692513
   7.21852     -5.648464
   7.19094     -5.604525
   7.16336     -5.561098
   7.13579     -5.518571
   7.10821     -5.477307
   7.08063     -5.437639
   7.05305     -5.400064
   7.02547     -5.364412
   6.99790     -5.331007
   6.97032     -5.299957
   6.94274     -5.271322
   6.91516     -5.245145
   6.88759     -5.221449
   6.86001     -5.200243
   6.83243     -5.181526
   6.80485     -5.165326
   6.77727     -5.151587
   6.74970     -5.140341
   6.72212     -5.131592
   6.69454     -5.125344
   6.66696     -5.121598
   6.63939     -5.120350
   6.63939     -5.120350
   6.60038     -5.119507
   6.56138     -5.116990
   6.52238     -5.112794
   6.48338     -5.107033
   6.44438     -5.099728
   6.40538     -5.090958
   6.36638     -5.080822
   6.32738     -5.069442
   6.28838     -5.056957
   6.24938     -5.043532
   6.21038     -5.029354
   6.17137     -5.014754
   6.13237     -5.094689
   6.09337     -5.177027
   6.05437     -5.239803
   6.01537     -5.285704
   5.97637     -5.317220
   5.93737     -5.336735
   5.89837     -5.346375
   5.85937     -5.347984
   5.82037     -5.343130
   5.78137     -5.333140
   5.74236     -5.319151
   5.70336     -5.302524
   5.66436     -5.283444
   5.62536     -5.262925
   5.58636     -5.241612
   5.54736     -5.220071
   5.50836     -5.198807
   5.46936     -5.178263
   5.43036     -5.158835
   5.39136     -5.140872
   5.35236     -5.124677
   5.31335     -5.110515
   5.27435     -5.098606
   5.23535     -5.089135
   5.19635     -5.082348
   5.15735     -5.078230
   5.11835     -5.077051
   5.11835     -5.077051
   5.07058     -5.078988
   5.02282     -5.085834
   4.97505     -5.097005
   4.92729     -5.112430
   4.87952     -5.131802
   4.83175     -5.154804
   4.78399     -5.181075
   4.73622     -5.210189
   4.68846     -5.241682
   4.64069     -5.275045
   4.59292     -5.309752
   4.54516     -5.345247
   4.49739     -5.380951
   4.44962     -5.416085
   4.40186     -5.450528
   4.35409     -5.483427
   4.30633     -5.514211
   4.25856     -5.542267
   4.21079     -5.567160
   4.16303     -5.588123
   4.11526     -5.605104
   4.06749     -5.617377
   4.01973     -5.624510
   3.97196     -5.626094
   3.92420     -5.621741
   3.87643     -5.611106
   3.82866     -5.593884
   3.78090     -5.569878
   3.73313     -5.609903
   3.68537     -5.681587
   3.63760     -5.753796
   3.58983     -5.825432
   3.54207     -5.894465
   3.49430     -5.957697
   3.44653     -6.011013
   3.39877     -6.054751
   3.35100     -6.094482
   3.30324     -6.134627
   3.25547     -6.176276
   3.25547     -6.176276
   3.23955     -6.175959
   3.22363     -6.174928
   3.20770     -6.173334
   3.19178     -6.171088
   3.17586     -6.168177
   3.15994     -6.164585
   3.14402     -6.160293
   3.12809     -6.155278
   3.11217     -6.149516
   3.09625     -6.142981
   3.08033     -6.135644
   3.06441     -6.127614
   3.04848     -6.118606
   3.03256     -6.108717
   3.01664     -6.097925
   3.00072     -6.086214
   2.98480     -6.073573
   2.96887     -6.059999
   2.95295     -6.045492
   2.93703     -6.030066
   2.92111     -6.013737
   2.90519     -5.996532
   2.88926     -5.978483
   2.87334     -5.959626
   2.85742     -5.940007
   2.84150     -5.919673
   2.82557     -5.898677
   2.80965     -5.877073
   2.79373     -5.854918
   2.77781     -5.832268
   2.76189     -5.809184
   2.74596     -5.785728
   2.73004     -5.761958
   2.71412     -5.737935
   2.69820     -5.713716
   2.68228     -5.689362
   2.66635     -5.664933
   2.65043     -5.640482
   2.63451     -5.615965
   2.63451     -5.615965
   2.61199     -5.664182
   2.58948     -5.710971
   2.56696     -5.756442
   2.54444     -5.800593
   2.52192     -5.843419
   2.49941     -5.884921
   2.47689     -5.925104
   2.45437     -5.963968
   2.43186     -6.001516
   2.40934     -6.037754
   2.38682     -6.072684
   2.36430     -6.106311
   2.34179     -6.138639
   2.31927     -6.169670
   2.29675     -6.199414
   2.27424     -6.227877
   2.25172     -6.255000
   2.22920     -6.280931
   2.20668     -6.305602
   2.18417     -6.329018
   2.16165     -6.351187
   2.13913     -6.371944
   2.11662     -6.391649
   2.09410     -6.410157
   2.07158     -6.427406
   2.04906     -6.443437
   2.02655     -6.458256
   2.00403     -6.471868
   1.98151     -6.484279
   1.95899     -6.495563
   1.93648     -6.505592
   1.91396     -6.514432
   1.89144     -6.522084
   1.86893     -6.528552
   1.84641     -6.533841
   1.82389     -6.537953
   1.80137     -6.540887
   1.77886     -6.542647
   1.75634     -6.543233
   1.75634     -6.543233
   1.71131     -6.540995
   1.66627     -6.534292
   1.62124     -6.523158
   1.57620     -6.507655
   1.53117     -6.487867
   1.48613     -6.463833
   1.44110     -6.435827
   1.39607     -6.403921
   1.35103     -6.368294
   1.30600     -6.329143
   1.26096     -6.286690
   1.21593     -6.241172
   1.17089     -6.193301
   1.12586     -6.142535
   1.08082     -6.089557
   1.03579     -6.034684
   0.99076     -5.978247
   0.94572     -5.920591
   0.90069     -5.862084
   0.85565     -5.803095
   0.81062     -5.744005
   0.76558     -5.685195
   0.72055     -5.627061
   0.67552     -5.570052
   0.63048     -5.514458
   0.58545     -5.460708
   0.54041     -5.409171
   0.49538     -5.360212
   0.45034     -5.314191
   0.40531     -5.271443
   0.36027     -5.232281
   0.31524     -5.196990
   0.27021     -5.165833
   0.22517     -5.139047
   0.18014     -5.116946
   0.13510     -5.099479
   0.09007     -5.086889
   0.04503     -5.079565
   0.00000     -5.077051
 
# Band-Index    3
   0.00000     -5.077038
   0.04503     -5.075010
   0.09007     -5.068827
   0.13510     -5.058989
   0.18014     -5.045212
   0.22517     -5.027450
   0.27021     -5.005903
   0.31524     -4.980543
   0.36027     -4.951424
   0.40531     -4.918617
   0.45034     -4.882223
   0.49538     -4.842345
   0.54041     -4.799104
   0.58545     -4.752633
   0.63048     -4.703083
   0.67552     -4.650646
   0.72055     -4.655021
   0.76558     -4.681761
   0.81062     -4.700689
   0.85565     -4.709006
   0.90069     -4.703286
   0.94572     -4.679391
   0.99076     -4.632495
   1.03579     -4.557281
   1.08082     -4.448481
   1.12586     -4.301718
   1.17089     -4.114472
   1.21593     -3.899840
   1.26096     -3.839325
   1.30600     -3.781456
   1.35103     -3.726828
   1.39607     -3.707792
   1.44110     -3.694325
   1.48613     -3.682460
   1.53117     -3.672329
   1.57620     -3.663906
   1.62124     -3.657296
   1.66627     -3.652544
   1.71131     -3.649680
   1.75634     -3.648721
   1.75634     -3.648721
   1.77886     -3.649461
   1.80137     -3.651676
   1.82389     -3.655363
   1.84641     -3.660517
   1.86893     -3.667129
   1.89144     -3.675183
   1.91396     -3.684658
   1.93648     -3.701119
   1.95899     -3.755592
   1.98151     -3.813465
   2.00403     -3.874157
   2.02655     -3.937142
   2.04906     -4.001949
   2.07158     -4.068162
   2.09410     -4.135413
   2.11662     -4.203146
   2.13913     -4.271576
   2.16165     -4.340478
   2.18417     -4.409130
   2.20668     -4.477588
   2.22920     -4.545694
   2.25172     -4.613203
   2.27424     -4.680498
   2.29675     -4.746849
   2.31927     -4.812397
   2.34179     -4.877064
   2.36430     -4.940778
   2.38682     -5.003484
   2.40934     -5.065131
   2.43186     -5.125675
   2.45437     -5.185076
   2.47689     -5.243302
   2.49941     -5.300325
   2.52192     -5.356121
   2.54444     -5.410666
   2.56696     -5.463942
   2.58948     -5.515939
   2.61199     -5.566645
   2.63451     -5.615948
   2.63451     -5.615948
   2.65043     -5.591476
   2.66635     -5.566576
   2.68228     -5.541355
   2.69820     -5.515842
   2.71412     -5.490063
   2.73004     -5.464049
   2.74596     -5.437831
   2.76189     -5.411444
   2.77781     -5.384921
   2.79373     -5.358299
   2.80965     -5.331620
   2.82557     -5.304925
   2.84150     -5.278260
   2.85742     -5.251672
   2.87334     -5.225211
   2.88926     -5.198928
   2.90519     -5.172881
   2.92111     -5.147128
   2.93703     -5.121732
   2.95295     -5.096760
   2.96887     -5.072282
   2.98480     -5.048372
   3.00072     -5.025108
   3.01664     -5.002573
   3.03256     -4.980851
   3.04848     -4.960030
   3.06441     -4.940204
   3.08033     -4.921308
   3.09625     -4.903783
   3.11217     -4.887542
   3.12809     -4.872682
   3.14402     -4.859298
   3.15994     -4.847480
   3.17586     -4.837317
   3.19178     -4.828883
   3.20770     -4.822246
   3.22363     -4.817462
   3.23955     -4.814791
   3.25547     -4.813828
   3.25547     -4.813828
   3.30324     -4.919464
   3.35100     -5.018256
   3.39877     -5.109915
   3.44653     -5.194103
   3.49430     -5.270680
   3.54207     -5.339569
   3.58983     -5.400857
   3.63760     -5.454373
   3.68537     -5.500215
   3.73313     -5.538703
   3.78090     -5.539459
   3.82866     -5.470750
   3.87643     -5.404213
   3.92420     -5.340211
   3.97196     -5.279091
   4.01973     -5.221181
   4.06749     -5.166808
   4.11526     -5.116307
   4.16303     -5.070023
   4.21079     -5.028422
   4.25856     -4.991751
   4.30633     -4.960822
   4.35409     -4.935492
   4.40186     -4.916567
   4.44962     -4.904416
   4.49739     -4.899374
   4.54516     -4.901180
   4.59292     -4.909417
   4.64069     -4.923152
   4.68846     -4.946910
   4.73622     -4.973533
   4.78399     -4.997321
   4.83175     -5.018165
   4.87952     -5.035968
   4.92729     -5.050647
   4.97505     -5.062129
   5.02282     -5.070363
   5.07058     -5.075369
   5.11835     -5.077038
   5.11835     -5.077038
   5.15735     -5.075808
   5.19635     -5.072050
   5.23535     -5.065726
   5.27435     -5.057499
   5.31335     -5.047209
   5.35236     -5.035097
   5.39136     -5.021463
   5.43036     -5.006674
   5.46936     -4.991167
   5.50836     -4.975454
   5.54736     -4.960104
   5.58636     -4.945733
   5.62536     -4.932968
   5.66436     -4.922398
   5.70336     -4.914528
   5.74236     -4.909718
   5.78137     -4.908138
   5.82037     -4.909771
   5.85937     -4.914430
   5.89837     -4.921797
   5.93737     -4.931477
   5.97637     -4.943038
   6.01537     -4.956043
   6.05437     -4.970081
   6.09337     -4.984780
   6.13237     -4.999772
   6.17137     -5.014754
   6.21038     -5.029354
   6.24938     -5.043532
   6.28838     -5.056957
   6.32738     -5.069442
   6.36638     -5.080822
   6.40538     -5.090958
   6.44438     -5.099728
   6.48338     -5.107033
   6.52238     -5.112794
   6.56138     -5.116990
   6.60038     -5.119507
   6.63939     -5.120350
   6.63939     -5.120350
   6.66696     -5.119251
   6.69454     -5.115957
   6.72212     -5.110482
   6.74970     -5.102839
   6.77727     -5.093050
   6.80485     -5.081141
   6.83243     -5.067120
   6.86001     -5.051073
   6.88759     -5.033021
   6.91516     -5.013015
   6.94274     -4.991112
   6.97032     -4.967375
   6.99790     -4.941909
   7.02547     -4.914722
   7.05305     -4.885929
   7.08063     -4.855646
   7.10821     -4.882436
   7.13579     -4.931844
   7.16336     -4.976453
   7.19094     -5.016193
   7.21852     -5.050973
   7.24610     -5.080654
   7.27368     -5.104975
   7.30125     -5.124016
   7.32883     -5.137136
   7.35641     -5.144225
   7.38399     -5.145110
   7.41156     -5.139755
   7.43914     -5.128302
   7.46672     -5.111086
   7.49430     -5.088673
   7.52188     -5.061755
   7.54945     -5.031100
   7.57703     -4.997614
   7.60461     -4.962082
   7.63219     -4.925272
   7.65976     -4.887877
   7.68734     -4.850504
   7.71492     -4.813828
   7.71492     -4.813828
   7.73084     -4.814791
   7.74676     -4.817462
   7.76269     -4.822246
   7.77861     -4.828883
   7.79453     -4.837316
   7.81045     -4.847480
   7.82637     -4.859297
   7.84230     -4.872682
   7.85822     -4.887542
   7.87414     -4.903783
   7.89006     -4.921308
   7.90598     -4.940204
   7.92191     -4.960029
   7.93783     -4.980851
   7.95375     -5.002573
   7.96967     -5.025108
   7.98559     -5.048372
   8.00152     -5.072282
   8.01744     -5.096760
   8.03336     -5.121732
   8.04928     -5.147128
   8.06521     -5.172881
   8.08113     -5.198928
   8.09705     -5.225211
   8.11297     -5.251672
   8.12889     -5.278260
   8.14482     -5.304925
   8.16074     -5.331619
   8.17666     -5.358299
   8.19258     -5.384921
   8.20850     -5.411444
   8.22443     -5.437831
   8.24035     -5.464049
   8.25627     -5.490063
   8.27219     -5.515842
   8.28811     -5.541355
   8.30404     -5.566576
   8.31996     -5.591476
   8.33588     -5.615948
   8.33588     -5.615948
   8.36772     -5.614777
   8.39957     -5.610904
   8.43141     -5.604452
   8.46326     -5.595446
   8.49510     -5.583916
   8.52694     -5.569903
   8.55879     -5.553449
   8.59063     -5.534604
   8.62248     -5.513426
   8.65432     -5.489968
   8.68617     -5.464273
   8.71801     -5.436401
   8.74985     -5.406364
   8.78170     -5.374182
   8.81354     -5.339576
   8.84539     -5.303083
   8.87723     -5.264477
   8.90907     -5.223323
   8.94092     -5.179588
   8.97276     -5.133034
   9.00461     -5.083366
   9.03645     -5.030235
   9.06829     -4.973264
   9.10014     -4.912053
   9.13198     -4.846314
   9.16383     -4.881448
   9.19567     -4.915521
   9.22751     -4.947311
   9.25936     -4.976642
   9.29120     -5.003481
   9.32305     -5.027716
   9.35489     -5.049225
   9.38674     -5.067969
   9.41858     -5.083897
   9.45042     -5.096990
   9.48227     -5.107191
   9.51411     -5.114494
   9.54596     -5.118884
   9.57780     -5.120350
   9.57780     -5.120350
   9.60538     -5.119251
   9.63296     -5.115957
   9.66053     -5.110482
   9.68811     -5.102839
   9.71569     -5.093050
   9.74327     -5.081141
   9.77084     -5.067120
   9.79842     -5.051073
   9.82600     -5.033021
   9.85358     -5.013015
   9.88116     -4.991112
   9.90873     -4.967375
   9.93631     -4.941909
   9.96389     -4.914722
   9.99147     -4.885929
  10.01904     -4.855646
  10.04662     -4.882436
  10.07420     -4.931844
  10.10178     -4.976453
  10.12936     -5.016193
  10.15693     -5.050973
  10.18451     -5.080654
  10.21209     -5.104974
  10.23967     -5.124016
  10.26725     -5.137136
  10.29482     -5.144225
  10.32240     -5.145110
  10.34998     -5.139755
  10.37756     -5.128302
  10.40513     -5.111086
  10.43271     -5.088673
  10.46029     -5.061755
  10.48787     -5.031100
  10.51545     -4.997614
  10.54302     -4.962082
  10.57060     -4.925272
  10.59818     -4.887877
  10.62576     -4.850504
  10.65333     -4.813828
  10.65333     -4.813828
  10.66926     -4.777105
  10.68518     -4.739548
  10.70110     -4.701459
  10.71702     -4.662716
  10.73294     -4.623347
  10.74887     -4.583381
  10.76479     -4.542852
  10.78071     -4.501794
  10.79663     -4.460247
  10.81255     -4.418255
  10.82848     -4.375865
  10.84440     -4.333127
  10.86032     -4.290101
  10.87624     -4.246851
  10.89217     -4.203447
  10.90809     -4.159965
  10.92401     -4.116538
  10.93993     -4.073214
  10.95585     -4.030095
  10.97178     -3.987294
  10.98770     -3.944934
  11.00362     -3.903153
  11.01954     -3.862098
  11.03546     -3.821931
  11.05139     -3.782828
  11.06731     -3.744976
  11.08323     -3.708577
  11.09915     -3.692536
  11.11507     -3.685060
  11.13100     -3.678249
  11.14692     -3.672118
  11.16284     -3.666679
  11.17876     -3.661943
  11.19468     -3.657920
  11.21061     -3.654618
  11.22653     -3.652044
  11.24245     -3.650200
  11.25837     -3.649091
  11.27429     -3.648721
 
# Band-Index    4
  11.27429     -3.466821
  11.25837     -3.468736
  11.24245     -3.474455
  11.22653     -3.483907
  11.21061     -3.496976
  11.19468     -3.513512
  11.17876     -3.533329
  11.16284     -3.556219
  11.14692     -3.581955
  11.13100     -3.610299
  11.11507     -3.641009
  11.09915     -3.673846
  11.08323     -3.700662
  11.06731     -3.709422
  11.05139     -3.718795
  11.03546     -3.728765
  11.01954     -3.739232
  11.00362     -3.750351
  10.98770     -3.762006
  10.97178     -3.774174
  10.95585     -3.786831
  10.93993     -3.799954
  10.92401     -3.813521
  10.90809     -3.827507
  10.89217     -3.841817
  10.87624     -3.856584
  10.86032     -3.871694
  10.84440     -3.887121
  10.82848     -3.902839
  10.81255     -3.918819
  10.79663     -3.935036
  10.78071     -3.951466
  10.76479     -3.968082
  10.74887     -3.984858
  10.73294     -4.001768
  10.71702     -4.018788
  10.70110     -4.035891
  10.68518     -4.053051
  10.66926     -4.070461
  10.65333     -4.087686
  10.65333     -4.087686
  10.62576     -4.106228
  10.59818     -4.127676
  10.57060     -4.151871
  10.54302     -4.178670
  10.51545     -4.207860
  10.48787     -4.239182
  10.46029     -4.272373
  10.43271     -4.307112
  10.40513     -4.343121
  10.37756     -4.380426
  10.34998     -4.418223
  10.32240     -4.456523
  10.29482     -4.495099
  10.26725     -4.533739
  10.23967     -4.572244
  10.21209     -4.610431
  10.18451     -4.648127
  10.15693     -4.685164
  10.12936     -4.721395
  10.10178     -4.756686
  10.07420     -4.790904
  10.04662     -4.823928
  10.01904     -4.828331
   9.99147     -4.769560
   9.96389     -4.706211
   9.93631     -4.638442
   9.90873     -4.566246
   9.88116     -4.490217
   9.85358     -4.410384
   9.82600     -4.327030
   9.79842     -4.240531
   9.77084     -4.151261
   9.74327     -4.059996
   9.71569     -3.967407
   9.68811     -3.875169
   9.66053     -3.786123
   9.63296     -3.705876
   9.60538     -3.645451
   9.57780     -3.621883
   9.57780     -3.621883
   9.54596     -3.652850
   9.51411     -3.729241
   9.48227     -3.826786
   9.45042     -3.932095
   9.41858     -4.039025
   9.38674     -4.144863
   9.35489     -4.247988
   9.32305     -4.347493
   9.29120     -4.442670
   9.25936     -4.533349
   9.22751     -4.619313
   9.19567     -4.700069
   9.16383     -4.775715
   9.13198     -4.845270
   9.10014     -4.807197
   9.06829     -4.767362
   9.03645     -4.726345
   9.00461     -4.684350
   8.97276     -4.641797
   8.94092     -4.599186
   8.90907     -4.557076
   8.87723     -4.516085
   8.84539     -4.476874
   8.81354     -4.440117
   8.78170     -4.406522
   8.74985     -4.376514
   8.71801     -4.350546
   8.68617     -4.328732
   8.65432     -4.311319
   8.62248     -4.297770
   8.59063     -4.287756
   8.55879     -4.280750
   8.52694     -4.276169
   8.49510     -4.273436
   8.46326     -4.272012
   8.43141     -4.271423
   8.39957     -4.271286
   8.36772     -4.271315
   8.33588     -4.271260
   8.33588     -4.271260
   8.31996     -4.270965
   8.30404     -4.269882
   8.28811     -4.268104
   8.27219     -4.265665
   8.25627     -4.262597
   8.24035     -4.258937
   8.22443     -4.254725
   8.20850     -4.250004
   8.19258     -4.244818
   8.17666     -4.239209
   8.16074     -4.233223
   8.14482     -4.226909
   8.12889     -4.220314
   8.11297     -4.213485
   8.09705     -4.206468
   8.08113     -4.199312
   8.06521     -4.192062
   8.04928     -4.184765
   8.03336     -4.177464
   8.01744     -4.170206
   8.00152     -4.163034
   7.98559     -4.155987
   7.96967     -4.149109
   7.95375     -4.142437
   7.93783     -4.136006
   7.92191     -4.129851
   7.90598     -4.124009
   7.89006     -4.118333
   7.87414     -4.113229
   7.85822     -4.108526
   7.84230     -4.104247
   7.82637     -4.100415
   7.81045     -4.097051
   7.79453     -4.094172
   7.77861     -4.091792
   7.76269     -4.089924
   7.74676     -4.088578
   7.73084     -4.087953
   7.71492     -4.087686
   7.71492     -4.087686
   7.68734     -4.106228
   7.65976     -4.127676
   7.63219     -4.151871
   7.60461     -4.178670
   7.57703     -4.207860
   7.54945     -4.239182
   7.52188     -4.272373
   7.49430     -4.307112
   7.46672     -4.343121
   7.43914     -4.380426
   7.41156     -4.418223
   7.38399     -4.456523
   7.35641     -4.495099
   7.32883     -4.533739
   7.30125     -4.572244
   7.27368     -4.610431
   7.24610     -4.648127
   7.21852     -4.685164
   7.19094     -4.721395
   7.16336     -4.756685
   7.13579     -4.790904
   7.10821     -4.823928
   7.08063     -4.828331
   7.05305     -4.769561
   7.02547     -4.706211
   6.99790     -4.638442
   6.97032     -4.566246
   6.94274     -4.490217
   6.91516     -4.410384
   6.88759     -4.327030
   6.86001     -4.240531
   6.83243     -4.151261
   6.80485     -4.059996
   6.77727     -3.967407
   6.74970     -3.875169
   6.72212     -3.786123
   6.69454     -3.705876
   6.66696     -3.645451
   6.63939     -3.621883
   6.63939     -3.621883
   6.60038     -3.623845
   6.56138     -3.629714
   6.52238     -3.639302
   6.48338     -3.652796
   6.44438     -3.717822
   6.40538     -3.930343
   6.36638     -4.143511
   6.32738     -4.349067
   6.28838     -4.540492
   6.24938     -4.712986
   6.21038     -4.863484
   6.17137     -4.990653
   6.13237     -4.999772
   6.09337     -4.984780
   6.05437     -4.970081
   6.01537     -4.956043
   5.97637     -4.943038
   5.93737     -4.931477
   5.89837     -4.921797
   5.85937     -4.914430
   5.82037     -4.909771
   5.78137     -4.908138
   5.74236     -4.909718
   5.70336     -4.914528
   5.66436     -4.922398
   5.62536     -4.932968
   5.58636     -4.945733
   5.54736     -4.960104
   5.50836     -4.975454
   5.46936     -4.991167
   5.43036     -5.006674
   5.39136     -5.021463
   5.35236     -5.035097
   5.31335     -5.047209
   5.27435     -5.057499
   5.23535     -5.065726
   5.19635     -5.072050
   5.15735     -5.075808
   5.11835     -5.077038
   5.11835     -5.077038
   5.07058     -5.074618
   5.02282     -5.068018
   4.97505     -5.057313
   4.92729     -5.042839
   4.87952     -5.025167
   4.83175     -5.005056
   4.78399     -4.983499
   4.73622     -4.961707
   4.68846     -4.941085
   4.64069     -4.917575
   4.59292     -4.885663
   4.54516     -4.851314
   4.49739     -4.814688
   4.44962     -4.775946
   4.40186     -4.735285
   4.35409     -4.692872
   4.30633     -4.648895
   4.25856     -4.603013
   4.21079     -4.564074
   4.16303     -4.575869
   4.11526     -4.584350
   4.06749     -4.589262
   4.01973     -4.590379
   3.97196     -4.587508
   3.92420     -4.580491
   3.87643     -4.569245
   3.82866     -4.553718
   3.78090     -4.534010
   3.73313     -4.509979
   3.68537     -4.481873
   3.63760     -4.449806
   3.58983     -4.413991
   3.54207     -4.374519
   3.49430     -4.332076
   3.44653     -4.286849
   3.39877     -4.239272
   3.35100     -4.189825
   3.30324     -4.139079
   3.25547     -4.087686
   3.25547     -4.087686
   3.23955     -4.087953
   3.22363     -4.088578
   3.20770     -4.089924
   3.19178     -4.091792
   3.17586     -4.094172
   3.15994     -4.097051
   3.14402     -4.100415
   3.12809     -4.104247
   3.11217     -4.108526
   3.09625     -4.113229
   3.08033     -4.118333
   3.06441     -4.124009
   3.04848     -4.129852
   3.03256     -4.136006
   3.01664     -4.142437
   3.00072     -4.149109
   2.98480     -4.155988
   2.96887     -4.163034
   2.95295     -4.170206
   2.93703     -4.177464
   2.92111     -4.184765
   2.90519     -4.192062
   2.88926     -4.199312
   2.87334     -4.206468
   2.85742     -4.213484
   2.84150     -4.220314
   2.82557     -4.226909
   2.80965     -4.233224
   2.79373     -4.239209
   2.77781     -4.244818
   2.76189     -4.250005
   2.74596     -4.254725
   2.73004     -4.258937
   2.71412     -4.262597
   2.69820     -4.265665
   2.68228     -4.268104
   2.66635     -4.269882
   2.65043     -4.270965
   2.63451     -4.271260
   2.63451     -4.271260
   2.61199     -4.269873
   2.58948     -4.265498
   2.56696     -4.258290
   2.54444     -4.248370
   2.52192     -4.235898
   2.49941     -4.221071
   2.47689     -4.204113
   2.45437     -4.185259
   2.43186     -4.164759
   2.40934     -4.142861
   2.38682     -4.119817
   2.36430     -4.095867
   2.34179     -4.071241
   2.31927     -4.046154
   2.29675     -4.020814
   2.27424     -3.995410
   2.25172     -3.969912
   2.22920     -3.944986
   2.20668     -3.920431
   2.18417     -3.896424
   2.16165     -3.873087
   2.13913     -3.850478
   2.11662     -3.828793
   2.09410     -3.808091
   2.07158     -3.788405
   2.04906     -3.769825
   2.02655     -3.752412
   2.00403     -3.736222
   1.98151     -3.721299
   1.95899     -3.707787
   1.93648     -3.695534
   1.91396     -3.650689
   1.89144     -3.604979
   1.86893     -3.564692
   1.84641     -3.530528
   1.82389     -3.503148
   1.80137     -3.483128
   1.77886     -3.470922
   1.75634     -3.466821
   1.75634     -3.466821
   1.71131     -3.470333
   1.66627     -3.480813
   1.62124     -3.498103
   1.57620     -3.521983
   1.53117     -3.552139
   1.48613     -3.588004
   1.44110     -3.629515
   1.39607     -3.676016
   1.35103     -3.726823
   1.30600     -3.781451
   1.26096     -3.839319
   1.21593     -3.899834
   1.17089     -3.962717
   1.12586     -4.026816
   1.08082     -4.092063
   1.03579     -4.157802
   0.99076     -4.223546
   0.94572     -4.288857
   0.90069     -4.353319
   0.85565     -4.416542
   0.81062     -4.478173
   0.76558     -4.537884
   0.72055     -4.595400
   0.67552     -4.650638
   0.63048     -4.703075
   0.58545     -4.752624
   0.54041     -4.799095
   0.49538     -4.842336
   0.45034     -4.882214
   0.40531     -4.918609
   0.36027     -4.951416
   0.31524     -4.980535
   0.27021     -5.005894
   0.22517     -5.027442
   0.18014     -5.045203
   0.13510     -5.058981
   0.09007     -5.068818
   0.04503     -5.075001
   0.00000     -5.077038
 
# Band-Index    5
   0.00000     -4.225074
   0.04503     -4.227009
   0.09007     -4.233999
   0.13510     -4.245436
   0.18014     -4.261216
   0.22517     -4.281004
   0.27021     -4.304917
   0.31524     -4.332484
   0.36027     -4.363358
   0.40531     -4.397105
   0.45034     -4.433205
   0.49538     -4.471048
   0.54041     -4.509904
   0.58545     -4.548895
   0.63048     -4.586974
   0.67552     -4.622895
   0.72055     -4.595392
   0.76558     -4.537877
   0.81062     -4.478165
   0.85565     -4.416535
   0.90069     -4.353312
   0.94572     -4.288850
   0.99076     -4.223539
   1.03579     -4.157796
   1.08082     -4.092056
   1.12586     -4.026810
   1.17089     -3.962711
   1.21593     -3.886745
   1.26096     -3.756767
   1.30600     -3.739118
   1.35103     -3.722754
   1.39607     -3.676011
   1.44110     -3.629510
   1.48613     -3.588000
   1.53117     -3.552135
   1.57620     -3.521979
   1.62124     -3.498099
   1.66627     -3.480809
   1.71131     -3.470329
   1.75634     -3.466817
   1.75634     -3.466817
   1.77886     -3.466818
   1.80137     -3.466814
   1.82389     -3.466806
   1.84641     -3.466796
   1.86893     -3.466783
   1.89144     -3.466767
   1.91396     -3.466748
   1.93648     -3.466726
   1.95899     -3.466701
   1.98151     -3.466669
   2.00403     -3.466636
   2.02655     -3.466600
   2.04906     -3.466562
   2.07158     -3.466522
   2.09410     -3.466481
   2.11662     -3.466425
   2.13913     -3.466382
   2.16165     -3.466370
   2.18417     -3.466331
   2.20668     -3.466292
   2.22920     -3.466253
   2.25172     -3.466215
   2.27424     -3.466180
   2.29675     -3.466143
   2.31927     -3.466105
   2.34179     -3.466069
   2.36430     -3.466034
   2.38682     -3.465999
   2.40934     -3.465966
   2.43186     -3.465935
   2.45437     -3.465905
   2.47689     -3.465877
   2.49941     -3.465850
   2.52192     -3.465826
   2.54444     -3.465803
   2.56696     -3.465784
   2.58948     -3.465767
   2.61199     -3.465752
   2.63451     -3.465582
   2.63451     -3.465582
   2.65043     -3.465992
   2.66635     -3.466723
   2.68228     -3.467934
   2.69820     -3.469625
   2.71412     -3.471795
   2.73004     -3.474440
   2.74596     -3.477559
   2.76189     -3.481148
   2.77781     -3.485200
   2.79373     -3.489707
   2.80965     -3.494656
   2.82557     -3.500037
   2.84150     -3.505837
   2.85742     -3.512038
   2.87334     -3.518620
   2.88926     -3.525561
   2.90519     -3.532832
   2.92111     -3.540404
   2.93703     -3.548242
   2.95295     -3.556309
   2.96887     -3.564562
   2.98480     -3.572952
   3.00072     -3.581430
   3.01664     -3.589937
   3.03256     -3.598409
   3.04848     -3.606780
   3.06441     -3.614981
   3.08033     -3.622843
   3.09625     -3.630489
   3.11217     -3.637735
   3.12809     -3.644500
   3.14402     -3.650702
   3.15994     -3.656264
   3.17586     -3.661112
   3.19178     -3.665177
   3.20770     -3.668400
   3.22363     -3.670734
   3.23955     -3.672297
   3.25547     -3.672775
   3.25547     -3.672775
   3.30324     -3.704619
   3.35100     -3.738450
   3.39877     -3.774365
   3.44653     -3.812123
   3.49430     -3.851622
   3.54207     -3.892746
   3.58983     -3.935539
   3.63760     -3.979571
   3.68537     -4.024845
   3.73313     -4.071211
   3.78090     -4.118509
   3.82866     -4.166573
   3.87643     -4.215233
   3.92420     -4.264305
   3.97196     -4.313601
   4.01973     -4.362919
   4.06749     -4.412073
   4.11526     -4.460863
   4.16303     -4.509082
   4.21079     -4.556532
   4.25856     -4.549278
   4.30633     -4.531852
   4.35409     -4.512115
   4.40186     -4.490481
   4.44962     -4.467360
   4.49739     -4.443267
   4.54516     -4.418525
   4.59292     -4.393638
   4.64069     -4.369042
   4.68846     -4.345191
   4.73622     -4.322512
   4.78399     -4.301400
   4.83175     -4.282237
   4.87952     -4.265367
   4.92729     -4.251099
   4.97505     -4.239687
   5.02282     -4.231317
   5.07058     -4.226470
   5.11835     -4.225074
   5.11835     -4.225074
   5.15735     -4.225593
   5.19635     -4.226733
   5.23535     -4.229150
   5.27435     -4.232530
   5.31335     -4.236547
   5.35236     -4.240977
   5.39136     -4.245542
   5.43036     -4.249896
   5.46936     -4.253627
   5.50836     -4.256258
   5.54736     -4.257259
   5.58636     -4.256068
   5.62536     -4.252112
   5.66436     -4.244859
   5.70336     -4.233886
   5.74236     -4.218897
   5.78137     -4.199878
   5.82037     -4.176922
   5.85937     -4.150336
   5.89837     -4.120560
   5.93737     -4.088136
   5.97637     -4.053640
   6.01537     -4.017661
   6.05437     -3.980788
   6.09337     -3.943673
   6.13237     -3.906683
   6.17137     -3.870384
   6.21038     -3.835011
   6.24938     -3.801480
   6.28838     -3.769905
   6.32738     -3.740647
   6.36638     -3.714035
   6.40538     -3.690361
   6.44438     -3.669875
   6.48338     -3.652796
   6.52238     -3.639302
   6.56138     -3.629714
   6.60038     -3.623845
   6.63939     -3.621883
   6.63939     -3.621883
   6.66696     -3.622045
   6.69454     -3.622531
   6.72212     -3.623339
   6.74970     -3.624465
   6.77727     -3.625904
   6.80485     -3.627650
   6.83243     -3.629652
   6.86001     -3.631983
   6.88759     -3.634588
   6.91516     -3.637452
   6.94274     -3.640560
   6.97032     -3.643897
   6.99790     -3.647448
   7.02547     -3.651186
   7.05305     -3.655091
   7.08063     -3.659239
   7.10821     -3.663391
   7.13579     -3.667660
   7.16336     -3.671986
   7.19094     -3.676332
   7.21852     -3.680656
   7.24610     -3.684919
   7.27368     -3.689072
   7.30125     -3.693063
   7.32883     -3.696833
   7.35641     -3.700315
   7.38399     -3.703433
   7.41156     -3.706100
   7.43914     -3.708222
   7.46672     -3.709615
   7.49430     -3.710307
   7.52188     -3.710085
   7.54945     -3.708788
   7.57703     -3.706325
   7.60461     -3.702533
   7.63219     -3.697301
   7.65976     -3.690564
   7.68734     -3.682315
   7.71492     -3.672775
   7.71492     -3.672775
   7.73084     -3.672297
   7.74676     -3.670734
   7.76269     -3.668400
   7.77861     -3.665177
   7.79453     -3.661112
   7.81045     -3.656264
   7.82637     -3.650702
   7.84230     -3.644500
   7.85822     -3.637735
   7.87414     -3.630489
   7.89006     -3.622843
   7.90598     -3.614981
   7.92191     -3.606780
   7.93783     -3.598409
   7.95375     -3.589937
   7.96967     -3.581430
   7.98559     -3.572952
   8.00152     -3.564562
   8.01744     -3.556309
   8.03336     -3.548242
   8.04928     -3.540404
   8.06521     -3.532832
   8.08113     -3.525561
   8.09705     -3.518620
   8.11297     -3.512038
   8.12889     -3.505837
   8.14482     -3.500037
   8.16074     -3.494656
   8.17666     -3.489707
   8.19258     -3.485200
   8.20850     -3.481148
   8.22443     -3.477559
   8.24035     -3.474440
   8.25627     -3.471795
   8.27219     -3.469625
   8.28811     -3.467934
   8.30404     -3.466723
   8.31996     -3.465992
   8.33588     -3.465582
   8.33588     -3.465582
   8.36772     -3.467668
   8.39957     -3.473326
   8.43141     -3.482529
   8.46326     -3.494963
   8.49510     -3.510183
   8.52694     -3.527636
   8.55879     -3.546658
   8.59063     -3.566496
   8.62248     -3.586362
   8.65432     -3.605465
   8.68617     -3.623034
   8.71801     -3.638650
   8.74985     -3.651761
   8.78170     -3.662212
   8.81354     -3.669956
   8.84539     -3.675269
   8.87723     -3.678379
   8.90907     -3.679558
   8.94092     -3.679160
   8.97276     -3.677503
   9.00461     -3.674875
   9.03645     -3.671528
   9.06829     -3.667679
   9.10014     -3.663474
   9.13198     -3.659147
   9.16383     -3.654775
   9.19567     -3.650457
   9.22751     -3.646277
   9.25936     -3.642278
   9.29120     -3.638563
   9.32305     -3.635299
   9.35489     -3.632238
   9.38674     -3.629542
   9.41858     -3.627231
   9.45042     -3.625322
   9.48227     -3.623824
   9.51411     -3.622747
   9.54596     -3.622099
   9.57780     -3.621883
   9.57780     -3.621883
   9.60538     -3.622045
   9.63296     -3.622531
   9.66053     -3.623339
   9.68811     -3.624465
   9.71569     -3.625905
   9.74327     -3.627650
   9.77084     -3.629652
   9.79842     -3.631983
   9.82600     -3.634588
   9.85358     -3.637452
   9.88116     -3.640560
   9.90873     -3.643897
   9.93631     -3.647448
   9.96389     -3.651186
   9.99147     -3.655091
  10.01904     -3.659239
  10.04662     -3.663391
  10.07420     -3.667660
  10.10178     -3.671986
  10.12936     -3.676332
  10.15693     -3.680656
  10.18451     -3.684919
  10.21209     -3.689072
  10.23967     -3.693063
  10.26725     -3.696833
  10.29482     -3.700315
  10.32240     -3.703433
  10.34998     -3.706101
  10.37756     -3.708222
  10.40513     -3.709615
  10.43271     -3.710307
  10.46029     -3.710085
  10.48787     -3.708788
  10.51545     -3.706325
  10.54302     -3.702533
  10.57060     -3.697301
  10.59818     -3.690564
  10.62576     -3.682316
  10.65333     -3.672775
  10.65333     -3.672775
  10.66926     -3.662602
  10.68518     -3.652597
  10.70110     -3.642904
  10.71702     -3.633451
  10.73294     -3.624241
  10.74887     -3.615277
  10.76479     -3.606560
  10.78071     -3.598092
  10.79663     -3.589876
  10.81255     -3.581912
  10.82848     -3.574204
  10.84440     -3.566750
  10.86032     -3.559555
  10.87624     -3.552620
  10.89217     -3.545946
  10.90809     -3.539541
  10.92401     -3.533401
  10.93993     -3.527526
  10.95585     -3.521917
  10.97178     -3.516574
  10.98770     -3.511498
  11.00362     -3.506691
  11.01954     -3.502155
  11.03546     -3.497889
  11.05139     -3.493896
  11.06731     -3.490175
  11.08323     -3.486725
  11.09915     -3.483550
  11.11507     -3.480649
  11.13100     -3.478023
  11.14692     -3.475672
  11.16284     -3.473598
  11.17876     -3.471799
  11.19468     -3.470278
  11.21061     -3.469033
  11.22653     -3.468065
  11.24245     -3.467372
  11.25837     -3.466956
  11.27429     -3.466817
 
# Band-Index    6
  11.27429     -0.500587
  11.25837     -0.497625
  11.24245     -0.488763
  11.22653     -0.474071
  11.21061     -0.453665
  11.19468     -0.427696
  11.17876     -0.396351
  11.16284     -0.359837
  11.14692     -0.318383
  11.13100     -0.272224
  11.11507     -0.221602
  11.09915     -0.166757
  11.08323     -0.107923
  11.06731     -0.045325
  11.05139      0.020821
  11.03546      0.090313
  11.01954      0.162963
  11.00362      0.238595
  10.98770      0.317048
  10.97178      0.398172
  10.95585      0.481830
  10.93993      0.567899
  10.92401      0.656261
  10.90809      0.746816
  10.89217      0.839455
  10.87624      0.934124
  10.86032      1.030728
  10.84440      1.129195
  10.82848      1.229462
  10.81255      1.331470
  10.79663      1.435163
  10.78071      1.540494
  10.76479      1.647417
  10.74887      1.755892
  10.73294      1.865881
  10.71702      1.977350
  10.70110      2.090267
  10.68518      2.204605
  10.66926      2.320321
  10.65333      2.437423
  10.65333      2.437423
  10.62576      2.529677
  10.59818      2.565476
  10.57060      2.539392
  10.54302      2.453887
  10.51545      2.321670
  10.48787      2.159184
  10.46029      1.979364
  10.43271      1.790264
  10.40513      1.596513
  10.37756      1.400788
  10.34998      1.204692
  10.32240      1.009217
  10.29482      0.815012
  10.26725      0.622514
  10.23967      0.432030
  10.21209      0.243783
  10.18451      0.057939
  10.15693     -0.125371
  10.12936     -0.306049
  10.10178     -0.484005
  10.07420     -0.659164
  10.04662     -0.831461
  10.01904     -1.000834
   9.99147     -1.167223
   9.96389     -1.330563
   9.93631     -1.490786
   9.90873     -1.647810
   9.88116     -1.801545
   9.85358     -1.951865
   9.82600     -2.098607
   9.79842     -2.241546
   9.77084     -2.380346
   9.74327     -2.514502
   9.71569     -2.643146
   9.68811     -2.764799
   9.66053     -2.876669
   9.63296     -2.973190
   9.60538     -3.043369
   9.57780     -3.070187
   9.57780     -3.070187
   9.54596     -3.034887
   9.51411     -2.945487
   9.48227     -2.826230
   9.45042     -2.690452
   9.41858     -2.544139
   9.38674     -2.390105
   9.35489     -2.229770
   9.32305     -2.063929
   9.29120     -1.893053
   9.25936     -1.717450
   9.22751     -1.537325
   9.19567     -1.352809
   9.16383     -1.164013
   9.13198     -0.971018
   9.10014     -0.773890
   9.06829     -0.572684
   9.03645     -0.367453
   9.00461     -0.158246
   8.97276      0.054880
   8.94092      0.271874
   8.90907      0.492670
   8.87723      0.717193
   8.84539      0.945349
   8.81354      1.177014
   8.78170      1.412029
   8.74985      1.650205
   8.71801      1.891267
   8.68617      2.134865
   8.65432      2.380486
   8.62248      2.627440
   8.59063      2.874736
   8.55879      3.120932
   8.52694      3.363837
   8.49510      3.600060
   8.46326      3.824205
   8.43141      4.027596
   8.39957      4.196611
   8.36772      4.312042
   8.33588      4.353495
   8.33588      4.353495
   8.31996      4.262282
   8.30404      4.172895
   8.28811      4.085413
   8.27219      3.999862
   8.25627      3.916271
   8.24035      3.834668
   8.22443      3.755081
   8.20850      3.677538
   8.19258      3.602068
   8.17666      3.528699
   8.16074      3.457462
   8.14482      3.388385
   8.12889      3.321498
   8.11297      3.256829
   8.09705      3.194409
   8.08113      3.134266
   8.06521      3.076429
   8.04928      3.020928
   8.03336      2.967790
   8.01744      2.917043
   8.00152      2.868714
   7.98559      2.822831
   7.96967      2.779417
   7.95375      2.738500
   7.93783      2.700101
   7.92191      2.664245
   7.90598      2.630953
   7.89006      2.600260
   7.87414      2.572156
   7.85822      2.546673
   7.84230      2.523827
   7.82637      2.503634
   7.81045      2.486105
   7.79453      2.471254
   7.77861      2.459089
   7.76269      2.449619
   7.74676      2.442850
   7.73084      2.438777
   7.71492      2.437423
   7.71492      2.437423
   7.68734      2.529677
   7.65976      2.565476
   7.63219      2.539392
   7.60461      2.453887
   7.57703      2.321670
   7.54945      2.159184
   7.52188      1.979364
   7.49430      1.790264
   7.46672      1.596513
   7.43914      1.400788
   7.41156      1.204692
   7.38399      1.009217
   7.35641      0.815012
   7.32883      0.622514
   7.30125      0.432030
   7.27368      0.243783
   7.24610      0.057939
   7.21852     -0.125371
   7.19094     -0.306048
   7.16336     -0.484005
   7.13579     -0.659164
   7.10821     -0.831461
   7.08063     -1.000834
   7.05305     -1.167223
   7.02547     -1.330563
   6.99790     -1.490786
   6.97032     -1.647810
   6.94274     -1.801545
   6.91516     -1.951865
   6.88759     -2.098607
   6.86001     -2.241546
   6.83243     -2.380346
   6.80485     -2.514502
   6.77727     -2.643146
   6.74970     -2.764800
   6.72212     -2.876669
   6.69454     -2.973190
   6.66696     -3.043369
   6.63939     -3.070187
   6.63939     -3.070187
   6.60038     -3.102337
   6.56138     -3.194820
   6.52238     -3.337211
   6.48338     -3.516084
   6.44438     -3.669875
   6.40538     -3.690361
   6.36638     -3.714035
   6.32738     -3.740647
   6.28838     -3.769905
   6.24938     -3.801480
   6.21038     -3.835011
   6.17137     -3.870384
   6.13237     -3.906683
   6.09337     -3.943673
   6.05437     -3.980788
   6.01537     -4.017661
   5.97637     -4.053640
   5.93737     -4.088136
   5.89837     -4.120560
   5.85937     -4.150336
   5.82037     -4.176922
   5.78137     -4.199878
   5.74236     -4.218897
   5.70336     -4.233886
   5.66436     -4.244858
   5.62536     -4.252112
   5.58636     -4.256068
   5.54736     -4.257259
   5.50836     -4.256258
   5.46936     -4.253627
   5.43036     -4.249896
   5.39136     -4.245542
   5.35236     -4.240977
   5.31335     -4.236547
   5.27435     -4.232530
   5.23535     -4.229150
   5.19635     -4.226733
   5.15735     -4.225593
   5.11835     -4.225074
   5.11835     -4.225074
   5.07058     -4.224853
   5.02282     -4.224370
   4.97505     -4.223307
   4.92729     -4.221688
   4.87952     -4.218865
   4.83175     -4.214237
   4.78399     -4.207010
   4.73622     -4.196183
   4.68846     -4.180568
   4.64069     -4.158850
   4.59292     -4.129716
   4.54516     -4.092005
   4.49739     -4.044854
   4.44962     -3.987623
   4.40186     -3.920324
   4.35409     -3.842657
   4.30633     -3.754500
   4.25856     -3.655061
   4.21079     -3.543962
   4.16303     -3.419652
   4.11526     -3.280251
   4.06749     -3.123309
   4.01973     -2.945866
   3.97196     -2.744598
   3.92420     -2.516081
   3.87643     -2.257181
   3.82866     -1.965422
   3.78090     -1.639395
   3.73313     -1.278555
   3.68537     -0.883589
   3.63760     -0.455929
   3.58983      0.002476
   3.54207      0.489454
   3.49430      1.002677
   3.44653      1.539861
   3.39877      2.098784
   3.35100      2.677140
   3.30324      2.796731
   3.25547      2.437423
   3.25547      2.437423
   3.23955      2.438777
   3.22363      2.442850
   3.20770      2.449619
   3.19178      2.459089
   3.17586      2.471254
   3.15994      2.486105
   3.14402      2.503634
   3.12809      2.523827
   3.11217      2.546673
   3.09625      2.572156
   3.08033      2.600260
   3.06441      2.630953
   3.04848      2.664245
   3.03256      2.700101
   3.01664      2.738500
   3.00072      2.779417
   2.98480      2.822831
   2.96887      2.868714
   2.95295      2.917043
   2.93703      2.967790
   2.92111      3.020927
   2.90519      3.076429
   2.88926      3.134266
   2.87334      3.194409
   2.85742      3.256829
   2.84150      3.321498
   2.82557      3.388385
   2.80965      3.457462
   2.79373      3.528699
   2.77781      3.602068
   2.76189      3.677538
   2.74596      3.755081
   2.73004      3.834668
   2.71412      3.916271
   2.69820      3.999862
   2.68228      4.085413
   2.66635      4.172895
   2.65043      4.262282
   2.63451      4.353495
   2.63451      4.353495
   2.61199      4.170099
   2.58948      3.988494
   2.56696      3.808797
   2.54444      3.631051
   2.52192      3.455295
   2.49941      3.281571
   2.47689      3.109920
   2.45437      2.940388
   2.43186      2.773025
   2.40934      2.607883
   2.38682      2.445018
   2.36430      2.284493
   2.34179      2.126376
   2.31927      1.970744
   2.29675      1.817678
   2.27424      1.667275
   2.25172      1.519643
   2.22920      1.374890
   2.20668      1.233153
   2.18417      1.094580
   2.16165      0.959343
   2.13913      0.827652
   2.11662      0.699696
   2.09410      0.575740
   2.07158      0.456072
   2.04906      0.341020
   2.02655      0.230959
   2.00403      0.126313
   1.98151      0.027559
   1.95899     -0.064768
   1.93648     -0.150077
   1.91396     -0.227726
   1.89144     -0.297034
   1.86893     -0.357293
   1.84641     -0.407803
   1.82389     -0.447902
   1.80137     -0.477009
   1.77886     -0.494668
   1.75634     -0.500587
   1.75634     -0.500587
   1.71131     -0.554887
   1.66627     -0.710118
   1.62124     -0.947116
   1.57620     -1.242989
   1.53117     -1.576672
   1.48613     -1.931017
   1.44110     -2.292622
   1.39607     -2.650812
   1.35103     -2.996646
   1.30600     -3.322435
   1.26096     -3.621167
   1.21593     -3.775577
   1.17089     -3.795578
   1.12586     -3.816290
   1.08082     -3.837864
   1.03579     -3.860060
   0.99076     -3.882732
   0.94572     -3.905730
   0.90069     -3.928903
   0.85565     -3.952097
   0.81062     -3.975164
   0.76558     -3.997957
   0.72055     -4.020331
   0.67552     -4.042142
   0.63048     -4.063248
   0.58545     -4.083517
   0.54041     -4.102826
   0.49538     -4.121056
   0.45034     -4.138093
   0.40531     -4.153833
   0.36027     -4.168179
   0.31524     -4.181040
   0.27021     -4.192340
   0.22517     -4.202011
   0.18014     -4.210606
   0.13510     -4.216909
   0.09007     -4.221437
   0.04503     -4.224164
   0.00000     -4.225074
 
# Band-Index    7
   0.00000     20.872163
   0.04503     20.842972
   0.09007     20.759955
   0.13510     20.627191
   0.18014     20.456944
   0.22517     20.259725
   0.27021     20.044270
   0.31524     19.818075
   0.36027     19.586770
   0.40531     19.354571
   0.45034     19.124575
   0.49538     18.899045
   0.54041     18.675792
   0.58545     18.216601
   0.63048     17.766195
   0.67552     17.325314
   0.72055     16.894649
   0.76558     16.474861
   0.81062     16.066598
   0.85565     15.670502
   0.90069     15.287218
   0.94572     14.917398
   0.99076     14.561702
   1.03579     14.139906
   1.08082     13.407774
   1.12586     12.679035
   1.17089     11.957320
   1.21593     11.245852
   1.26096     10.547453
   1.30600      9.865111
   1.35103      9.202120
   1.39607      8.562175
   1.44110      7.950527
   1.48613      7.373402
   1.53117      6.839508
   1.57620      6.360759
   1.62124      5.953114
   1.66627      5.636813
   1.71131      5.434224
   1.75634      5.364172
   1.75634      5.364172
   1.77886      5.364871
   1.80137      5.366969
   1.82389      5.370473
   1.84641      5.375390
   1.86893      5.381731
   1.89144      5.389512
   1.91396      5.398751
   1.93648      5.409470
   1.95899      5.421692
   1.98151      5.435475
   2.00403      5.450790
   2.02655      5.467699
   2.04906      5.486237
   2.07158      5.506441
   2.09410      5.528353
   2.11662      5.552040
   2.13913      5.577496
   2.16165      5.604780
   2.18417      5.633954
   2.20668      5.665054
   2.22920      5.698122
   2.25172      5.733200
   2.27424      5.770315
   2.29675      5.809516
   2.31927      5.850815
   2.34179      5.894217
   2.36430      5.939711
   2.38682      5.987258
   2.40934      6.036775
   2.43186      6.082950
   2.45437      5.884342
   2.47689      5.687238
   2.49941      5.491689
   2.52192      5.297743
   2.54444      5.105443
   2.56696      4.914833
   2.58948      4.725950
   2.61199      4.538834
   2.63451      4.353656
   2.63451      4.353656
   2.65043      4.437324
   2.66635      4.503890
   2.68228      4.553379
   2.69820      4.586784
   2.71412      4.605757
   2.73004      4.612313
   2.74596      4.608545
   2.76189      4.596430
   2.77781      4.577721
   2.79373      4.553909
   2.80965      4.526233
   2.82557      4.495709
   2.84150      4.463162
   2.85742      4.429265
   2.87334      4.394564
   2.88926      4.359507
   2.90519      4.324462
   2.92111      4.289733
   2.93703      4.255577
   2.95295      4.222207
   2.96887      4.189804
   2.98480      4.158525
   3.00072      4.128502
   3.01664      4.099850
   3.03256      4.072671
   3.04848      4.047050
   3.06441      4.023064
   3.08033      4.000818
   3.09625      3.980296
   3.11217      3.961587
   3.12809      3.944735
   3.14402      3.929778
   3.15994      3.916751
   3.17586      3.905681
   3.19178      3.896593
   3.20770      3.889505
   3.22363      3.884432
   3.23955      3.881381
   3.25547      3.880365
   3.25547      3.880365
   3.30324      3.272255
   3.35100      3.167667
   3.39877      3.549821
   3.44653      3.942876
   3.49430      4.346574
   3.54207      4.760700
   3.58983      5.185094
   3.63760      5.619662
   3.68537      6.064309
   3.73313      6.518898
   3.78090      6.983380
   3.82866      7.457695
   3.87643      7.941756
   3.92420      8.435541
   3.97196      8.939003
   4.01973      9.452083
   4.06749      9.974714
   4.11526     10.506791
   4.16303     11.048234
   4.21079     11.598916
   4.25856     12.158683
   4.30633     12.727188
   4.35409     13.304304
   4.40186     13.889532
   4.44962     14.482330
   4.49739     15.081842
   4.54516     15.687078
   4.59292     16.296387
   4.64069     16.907497
   4.68846     17.516946
   4.73622     18.119359
   4.78399     18.706180
   4.83175     19.263716
   4.87952     19.770780
   4.92729     20.198669
   4.97505     20.520426
   5.02282     20.728616
   5.07058     20.839249
   5.11835     20.872163
   5.11835     20.872163
   5.15735     20.850006
   5.19635     20.775828
   5.23535     20.631152
   5.27435     20.382573
   5.31335     20.008595
   5.35236     19.518917
   5.39136     18.947521
   5.43036     18.326769
   5.46936     17.678176
   5.50836     17.014581
   5.54736     16.343648
   5.58636     15.670102
   5.62536     14.997058
   5.66436     14.326659
   5.70336     13.660433
   5.74236     12.999522
   5.78137     12.344839
   5.82037     11.697197
   5.85937     11.057275
   5.89837     10.425685
   5.93737      9.803028
   5.97637      9.189954
   6.01537      8.587119
   6.05437      7.995232
   6.09337      7.415081
   6.13237      6.847649
   6.17137      6.294059
   6.21038      5.755684
   6.24938      5.234200
   6.28838      4.731816
   6.32738      4.251334
   6.36638      3.796422
   6.40538      3.371910
   6.44438      2.984231
   6.48338      2.641764
   6.52238      2.355062
   6.56138      2.136446
   6.60038      1.998617
   6.63939      1.951406
   6.63939      1.951406
   6.66696      1.952151
   6.69454      1.954390
   6.72212      1.958136
   6.74970      1.963414
   6.77727      1.970261
   6.80485      1.978722
   6.83243      1.988864
   6.86001      2.000735
   6.88759      2.014425
   6.91516      2.029998
   6.94274      2.047552
   6.97032      2.067188
   6.99790      2.089006
   7.02547      2.113128
   7.05305      2.139664
   7.08063      2.168747
   7.10821      2.200485
   7.13579      2.234966
   7.16336      2.272318
   7.19094      2.312637
   7.21852      2.356004
   7.24610      2.402476
   7.27368      2.452084
   7.30125      2.504794
   7.32883      2.560552
   7.35641      2.619207
   7.38399      2.680533
   7.41156      2.744206
   7.43914      2.809815
   7.46672      2.876951
   7.49430      2.945100
   7.52188      3.014317
   7.54945      3.085715
   7.57703      3.162814
   7.60461      3.253097
   7.63219      3.367000
   7.65976      3.511488
   7.68734      3.684869
   7.71492      3.880365
   7.71492      3.880365
   7.73084      3.881381
   7.74676      3.884432
   7.76269      3.889505
   7.77861      3.896593
   7.79453      3.905681
   7.81045      3.916751
   7.82637      3.929778
   7.84230      3.944735
   7.85822      3.961587
   7.87414      3.980296
   7.89006      4.000818
   7.90598      4.023065
   7.92191      4.047050
   7.93783      4.072671
   7.95375      4.099851
   7.96967      4.128502
   7.98559      4.158525
   8.00152      4.189805
   8.01744      4.222207
   8.03336      4.255577
   8.04928      4.289734
   8.06521      4.324462
   8.08113      4.359507
   8.09705      4.394564
   8.11297      4.429265
   8.12889      4.463162
   8.14482      4.495709
   8.16074      4.526233
   8.17666      4.553909
   8.19258      4.577721
   8.20850      4.596431
   8.22443      4.608545
   8.24035      4.612313
   8.25627      4.605757
   8.27219      4.586784
   8.28811      4.553379
   8.30404      4.503890
   8.31996      4.437324
   8.33588      4.353656
   8.33588      4.353656
   8.36772      4.333846
   8.39957      4.277638
   8.43141      4.191524
   8.46326      4.083725
   8.49510      3.961948
   8.52694      3.832463
   8.55879      3.699984
   8.59063      3.567905
   8.62248      3.438608
   8.65432      3.313718
   8.68617      3.194319
   8.71801      3.081092
   8.74985      2.974446
   8.78170      2.874552
   8.81354      2.781438
   8.84539      2.694992
   8.87723      2.615037
   8.90907      2.541347
   8.94092      2.473640
   8.97276      2.411612
   9.00461      2.354947
   9.03645      2.303325
   9.06829      2.256432
   9.10014      2.213931
   9.13198      2.175599
   9.16383      2.141117
   9.19567      2.110223
   9.22751      2.082679
   9.25936      2.058267
   9.29120      2.036771
   9.32305      2.017993
   9.35489      2.001821
   9.38674      1.988086
   9.41858      1.976670
   9.45042      1.967465
   9.48227      1.960393
   9.51411      1.955387
   9.54596      1.952400
   9.57780      1.951406
   9.57780      1.951406
   9.60538      1.952151
   9.63296      1.954390
   9.66053      1.958136
   9.68811      1.963414
   9.71569      1.970261
   9.74327      1.978722
   9.77084      1.988864
   9.79842      2.000735
   9.82600      2.014425
   9.85358      2.029998
   9.88116      2.047552
   9.90873      2.067188
   9.93631      2.089006
   9.96389      2.113128
   9.99147      2.139664
  10.01904      2.168747
  10.04662      2.200486
  10.07420      2.234966
  10.10178      2.272318
  10.12936      2.312637
  10.15693      2.356004
  10.18451      2.402476
  10.21209      2.452084
  10.23967      2.504794
  10.26725      2.560552
  10.29482      2.619207
  10.32240      2.680533
  10.34998      2.744206
  10.37756      2.809815
  10.40513      2.876951
  10.43271      2.945100
  10.46029      3.014317
  10.48787      3.085715
  10.51545      3.162814
  10.54302      3.253097
  10.57060      3.367000
  10.59818      3.511488
  10.62576      3.684869
  10.65333      3.880365
  10.65333      3.880365
  10.66926      4.084880
  10.68518      4.289609
  10.70110      4.493811
  10.71702      4.696277
  10.73294      4.894888
  10.74887      5.085655
  10.76479      5.260826
  10.78071      5.406591
  10.79663      5.507090
  10.81255      5.560642
  10.82848      5.581999
  10.84440      5.585864
  10.86032      5.580755
  10.87624      5.571005
  10.89217      5.558854
  10.90809      5.545483
  10.92401      5.531675
  10.93993      5.517813
  10.95585      5.504162
  10.97178      5.490895
  10.98770      5.478125
  11.00362      5.465929
  11.01954      5.454356
  11.03546      5.443414
  11.05139      5.433183
  11.06731      5.423649
  11.08323      5.414819
  11.09915      5.406699
  11.11507      5.399292
  11.13100      5.392597
  11.14692      5.386614
  11.16284      5.381342
  11.17876      5.376778
  11.19468      5.372921
  11.21061      5.369768
  11.22653      5.367318
  11.24245      5.365570
  11.25837      5.364521
  11.27429      5.364172
 
# Band-Index    8
  11.27429     11.350354
  11.25837     11.336632
  11.24245     11.295919
  11.22653     11.229510
  11.21061     11.139344
  11.19468     11.027800
  11.17876     10.897415
  11.16284     10.750708
  11.14692     10.590040
  11.13100     10.417560
  11.11507     10.235162
  11.09915     10.044491
  11.08323      9.846959
  11.06731      9.643775
  11.05139      9.435956
  11.03546      9.224401
  11.01954      9.009872
  11.00362      8.793034
  10.98770      8.574469
  10.97178      8.354706
  10.95585      8.134234
  10.93993      7.913530
  10.92401      7.693084
  10.90809      7.473445
  10.89217      7.255311
  10.87624      7.039552
  10.86032      6.827633
  10.84440      6.621981
  10.82848      6.427104
  10.81255      6.251679
  10.79663      6.110560
  10.78071      6.018638
  10.76479      5.974366
  10.74887      5.962011
  10.73294      5.967875
  10.71702      5.984325
  10.70110      6.007494
  10.68518      6.035370
  10.66926      6.066845
  10.65333      6.101304
  10.65333      6.101304
  10.62576      6.162404
  10.59818      6.274661
  10.57060      6.436495
  10.54302      6.643470
  10.51545      6.889570
  10.48787      7.168475
  10.46029      7.474419
  10.43271      7.802565
  10.40513      8.149022
  10.37756      8.510723
  10.34998      8.885298
  10.32240      9.270897
  10.29482      9.666051
  10.26725     10.069586
  10.23967     10.480536
  10.21209     10.898226
  10.18451     11.321672
  10.15693     11.750429
  10.12936     12.183926
  10.10178     12.621627
  10.07420     13.062996
  10.04662     13.507467
  10.01904     13.954421
   9.99147     14.403219
   9.96389     14.853123
   9.93631     15.303179
   9.90873     15.752273
   9.88116     16.198789
   9.85358     16.640762
   9.82600     17.075397
   9.79842     17.498628
   9.77084     17.904394
   9.74327     18.283429
   9.71569     18.622237
   9.68811     18.903671
   9.66053     19.113676
   9.63296     19.250893
   9.60538     19.325727
   9.57780     19.349252
   9.57780     19.349252
   9.54596     19.317741
   9.51411     19.216696
   9.48227     19.034573
   9.45042     18.771867
   9.41858     18.445316
   9.38674     18.075823
   9.35489     17.679706
   9.32305     17.267753
   9.29120     16.846817
   9.25936     16.421216
   9.22751     15.993837
   9.19567     15.566612
   9.16383     15.140873
   9.13198     14.717599
   9.10014     14.297497
   9.06829     13.881154
   9.03645     13.468833
   9.00461     13.060948
   8.97276     12.657737
   8.94092     12.259435
   8.90907     11.866239
   8.87723     11.478330
   8.84539     11.095885
   8.81354     10.719088
   8.78170     10.347971
   8.74985      9.983118
   8.71801      9.624668
   8.68617      9.273011
   8.65432      8.928662
   8.62248      8.592341
   8.59063      8.265048
   8.55879      7.948243
   8.52694      7.644109
   8.49510      7.356067
   8.46326      7.089517
   8.43141      6.853141
   8.39957      6.660566
   8.36772      6.531001
   8.33588      6.484748
   8.33588      6.484748
   8.31996      6.487532
   8.30404      6.493629
   8.28811      6.499228
   8.27219      6.501284
   8.25627      6.498337
   8.24035      6.490418
   8.22443      6.478378
   8.20850      6.463284
   8.19258      6.446101
   8.17666      6.427599
   8.16074      6.408362
   8.14482      6.388817
   8.12889      6.369275
   8.11297      6.349964
   8.09705      6.331051
   8.08113      6.312655
   8.06521      6.294867
   8.04928      6.277750
   8.03336      6.261351
   8.01744      6.245705
   8.00152      6.230836
   7.98559      6.216760
   7.96967      6.203489
   7.95375      6.191030
   7.93783      6.179386
   7.92191      6.168559
   7.90598      6.158548
   7.89006      6.149393
   7.87414      6.141012
   7.85822      6.133442
   7.84230      6.126679
   7.82637      6.120721
   7.81045      6.115565
   7.79453      6.111207
   7.77861      6.107644
   7.76269      6.104876
   7.74676      6.102900
   7.73084      6.101699
   7.71492      6.101304
   7.71492      6.101304
   7.68734      6.162404
   7.65976      6.274661
   7.63219      6.436495
   7.60461      6.643470
   7.57703      6.889570
   7.54945      7.168475
   7.52188      7.474419
   7.49430      7.802565
   7.46672      8.149022
   7.43914      8.510723
   7.41156      8.885298
   7.38399      9.270897
   7.35641      9.666051
   7.32883     10.069586
   7.30125     10.480536
   7.27368     10.898226
   7.24610     11.321672
   7.21852     11.750429
   7.19094     12.183926
   7.16336     12.621627
   7.13579     13.062996
   7.10821     13.507467
   7.08063     13.954421
   7.05305     14.403219
   7.02547     14.853123
   6.99790     15.303179
   6.97032     15.752273
   6.94274     16.198789
   6.91516     16.640762
   6.88759     17.075397
   6.86001     17.498628
   6.83243     17.904394
   6.80485     18.283429
   6.77727     18.622237
   6.74970     18.903671
   6.72212     19.113676
   6.69454     19.250893
   6.66696     19.325727
   6.63939     19.349252
   6.63939     19.349252
   6.60038     19.354065
   6.56138     19.368474
   6.52238     19.392487
   6.48338     19.425755
   6.44438     19.468166
   6.40538     19.519447
   6.36638     19.579253
   6.32738     19.647173
   6.28838     19.722724
   6.24938     19.805344
   6.21038     19.894394
   6.17137     19.989066
   6.13237     20.088709
   6.09337     20.192361
   6.05437     20.299112
   6.01537     20.407786
   5.97637     20.517338
   5.93737     20.626610
   5.89837     20.734420
   5.85937     20.839602
   5.82037     20.941046
   5.78137     21.037757
   5.74236     21.128919
   5.70336     21.213839
   5.66436     21.292522
   5.62536     21.365093
   5.58636     21.432339
   5.54736     21.495804
   5.50836     21.558084
   5.46936     21.623385
   5.43036     21.698579
   5.39136     21.795161
   5.35236     21.932245
   5.31335     22.137956
   5.27435     22.438369
   5.23535     22.827827
   5.19635     23.250716
   5.15735     23.608575
   5.11835     23.757488
   5.11835     23.757488
   5.07058     23.578435
   5.02282     23.130880
   4.97505     22.546702
   4.92729     21.899169
   4.87952     21.222435
   4.83175     20.533484
   4.78399     19.841715
   4.73622     19.152790
   4.68846     18.470435
   4.64069     17.797243
   4.59292     17.135114
   4.54516     16.485505
   4.49739     15.849583
   4.44962     15.228386
   4.40186     14.622801
   4.35409     14.033631
   4.30633     13.461594
   4.25856     12.907471
   4.21079     12.371869
   4.16303     11.855503
   4.11526     11.358970
   4.06749     10.882878
   4.01973     10.427772
   3.97196      9.994169
   3.92420      9.582494
   3.87643      9.193088
   3.82866      8.826189
   3.78090      8.481824
   3.73313      8.160158
   3.68537      7.860945
   3.63760      7.583907
   3.58983      7.328630
   3.54207      7.094594
   3.49430      6.881080
   3.44653      6.687409
   3.39877      6.512888
   3.35100      6.356955
   3.30324      6.219418
   3.25547      6.101304
   3.25547      6.101304
   3.23955      6.101699
   3.22363      6.102900
   3.20770      6.104876
   3.19178      6.107644
   3.17586      6.111207
   3.15994      6.115565
   3.14402      6.120721
   3.12809      6.126679
   3.11217      6.133442
   3.09625      6.141012
   3.08033      6.149393
   3.06441      6.158548
   3.04848      6.168559
   3.03256      6.179386
   3.01664      6.191030
   3.00072      6.203489
   2.98480      6.216760
   2.96887      6.230836
   2.95295      6.245705
   2.93703      6.261351
   2.92111      6.277750
   2.90519      6.294867
   2.88926      6.312655
   2.87334      6.331051
   2.85742      6.349964
   2.84150      6.369275
   2.82557      6.388817
   2.80965      6.408362
   2.79373      6.427599
   2.77781      6.446101
   2.76189      6.463284
   2.74596      6.478378
   2.73004      6.490418
   2.71412      6.498337
   2.69820      6.501284
   2.68228      6.499228
   2.66635      6.493629
   2.65043      6.487532
   2.63451      6.484748
   2.63451      6.484748
   2.61199      6.474630
   2.58948      6.446702
   2.56696      6.405960
   2.54444      6.357381
   2.52192      6.304627
   2.49941      6.250085
   2.47689      6.195256
   2.45437      6.141074
   2.43186      6.088125
   2.40934      6.283007
   2.38682      6.484448
   2.36430      6.687206
   2.34179      6.891202
   2.31927      7.096335
   2.29675      7.302515
   2.27424      7.509628
   2.25172      7.717555
   2.22920      7.926114
   2.20668      8.135138
   2.18417      8.344414
   2.16165      8.553690
   2.13913      8.762684
   2.11662      8.971009
   2.09410      9.178250
   2.07158      9.383896
   2.04906      9.587308
   2.02655      9.787734
   2.00403      9.984254
   1.98151     10.175736
   1.95899     10.360782
   1.93648     10.537738
   1.91396     10.704558
   1.89144     10.858817
   1.86893     10.997704
   1.84641     11.118059
   1.82389     11.216524
   1.80137     11.289796
   1.77886     11.335060
   1.75634     11.350354
   1.75634     11.350354
   1.71131     11.362532
   1.66627     11.399010
   1.62124     11.459623
   1.57620     11.544097
   1.53117     11.652065
   1.48613     11.783194
   1.44110     11.936686
   1.39607     12.112047
   1.35103     12.308707
   1.30600     12.525942
   1.26096     12.763037
   1.21593     13.019265
   1.17089     13.293834
   1.12586     13.586177
   1.08082     13.895381
   1.03579     14.220793
   0.99076     14.561748
   0.94572     14.917443
   0.90069     15.287264
   0.85565     15.670548
   0.81062     16.066643
   0.76558     16.474906
   0.72055     16.894695
   0.67552     17.325359
   0.63048     17.766240
   0.58545     18.216647
   0.54041     18.675838
   0.49538     19.142930
   0.45034     19.617111
   0.40531     20.097218
   0.36027     20.581838
   0.31524     21.069063
   0.27021     21.556143
   0.22517     22.038801
   0.18014     22.509434
   0.13510     22.955515
   0.09007     23.350832
   0.04503     23.644013
   0.00000     23.757488
 
# Band-Index    9
   0.00000     23.757567
   0.04503     23.644066
   0.09007     23.350884
   0.13510     22.955566
   0.18014     22.509484
   0.22517     22.038851
   0.27021     21.556192
   0.31524     21.069111
   0.36027     20.581886
   0.40531     20.097265
   0.45034     19.617157
   0.49538     19.142976
   0.54041     18.679614
   0.58545     18.467433
   0.63048     18.263333
   0.67552     18.067862
   0.72055     17.881580
   0.76558     17.704245
   0.81062     17.536204
   0.85565     16.992863
   0.90069     16.305784
   0.94572     15.595420
   0.99076     14.871013
   1.03579     14.220838
   1.08082     13.895427
   1.12586     13.586223
   1.17089     13.293881
   1.21593     13.019312
   1.26096     12.763084
   1.30600     12.525989
   1.35103     12.308755
   1.39607     12.112095
   1.44110     11.936734
   1.48613     11.783243
   1.53117     11.652114
   1.57620     11.544146
   1.62124     11.459671
   1.66627     11.399059
   1.71131     11.362581
   1.75634     11.350403
   1.75634     11.350403
   1.77886     11.341236
   1.80137     11.314025
   1.82389     11.269372
   1.84641     11.208251
   1.86893     11.131943
   1.89144     11.041909
   1.91396     10.939712
   1.93648     10.826937
   1.95899     10.705153
   1.98151     10.575846
   2.00403     10.440397
   2.02655     10.300073
   2.04906     10.156017
   2.07158     10.009250
   2.09410      9.860675
   2.11662      9.711161
   2.13913      9.561306
   2.16165      9.411755
   2.18417      9.263138
   2.20668      9.115901
   2.22920      8.970472
   2.25172      8.827239
   2.27424      8.686420
   2.29675      8.548516
   2.31927      8.413708
   2.34179      8.282252
   2.36430      8.154383
   2.38682      8.030364
   2.40934      7.910458
   2.43186      7.794969
   2.45437      7.684271
   2.47689      7.578856
   2.49941      7.479418
   2.52192      7.386983
   2.54444      7.303123
   2.56696      7.230288
   2.58948      7.172187
   2.61199      7.133830
   2.63451      7.120294
   2.63451      7.120294
   2.65043      7.128295
   2.66635      7.155000
   2.68228      7.203984
   2.69820      7.277241
   2.71412      7.374523
   2.73004      7.493725
   2.74596      7.631840
   2.76189      7.785761
   2.77781      7.952701
   2.79373      8.130324
   2.80965      8.316724
   2.82557      8.510386
   2.84150      8.710084
   2.85742      8.914820
   2.87334      9.123775
   2.88926      9.336257
   2.90519      9.551671
   2.92111      9.769492
   2.93703      9.989237
   2.95295     10.210448
   2.96887     10.432665
   2.98480     10.655428
   3.00072     10.878255
   3.01664     11.100613
   3.03256     11.321898
   3.04848     11.541415
   3.06441     11.758343
   3.08033     11.971830
   3.09625     12.180434
   3.11217     12.382829
   3.12809     12.577226
   3.14402     12.761417
   3.15994     12.932744
   3.17586     13.088006
   3.19178     13.223493
   3.20770     13.335119
   3.22363     13.418728
   3.23955     13.470525
   3.25547     13.488137
   3.25547     13.488137
   3.30324     13.809496
   3.35100     14.149616
   3.39877     14.507653
   3.44653     14.883019
   3.49430     15.275094
   3.54207     15.683283
   3.58983     16.107020
   3.63760     16.545801
   3.68537     16.999129
   3.73313     17.466554
   3.78090     17.947654
   3.82866     18.442081
   3.87643     18.949362
   3.92420     19.469213
   3.97196     20.001315
   4.01973     20.545346
   4.06749     21.100970
   4.11526     21.667815
   4.16303     22.077759
   4.21079     22.463968
   4.25856     22.862711
   4.30633     23.271441
   4.35409     23.689008
   4.40186     24.111255
   4.44962     24.104915
   4.49739     23.840260
   4.54516     23.597185
   4.59292     23.376914
   4.64069     23.181485
   4.68846     23.013851
   4.73622     22.878466
   4.78399     22.782303
   4.83175     22.736436
   4.87952     22.757637
   4.92729     22.866683
   4.97505     23.075388
   5.02282     23.359445
   5.07058     23.635041
   5.11835     23.757567
   5.11835     23.757567
   5.15735     23.734000
   5.19635     23.667678
   5.23535     23.565778
   5.27435     23.438066
   5.31335     23.294075
   5.35236     23.140658
   5.39136     22.982763
   5.43036     22.823862
   5.46936     22.666379
   5.50836     22.512002
   5.54736     22.361915
   5.58636     22.216940
   5.62536     22.077669
   5.66436     21.944511
   5.70336     21.817745
   5.74236     21.697600
   5.78137     21.584099
   5.82037     21.477347
   5.85937     21.377361
   5.89837     21.284124
   5.93737     21.197591
   5.97637     21.117689
   6.01537     21.044326
   6.05437     20.977382
   6.09337     20.916463
   6.13237     20.861884
   6.17137     20.813229
   6.21038     20.770342
   6.24938     20.732855
   6.28838     20.700541
   6.32738     20.673087
   6.36638     20.650147
   6.40538     20.631353
   6.44438     20.616324
   6.48338     20.604681
   6.52238     20.596069
   6.56138     20.589700
   6.60038     20.586249
   6.63939     20.585115
   6.63939     20.585115
   6.66696     20.538063
   6.69454     20.414597
   6.72212     20.255308
   6.74970     20.099408
   6.77727     19.966845
   6.80485     19.784143
   6.83243     19.565586
   6.86001     19.339102
   6.88759     19.107709
   6.91516     18.873534
   6.94274     18.638143
   6.97032     18.402707
   6.99790     18.168094
   7.02547     17.935041
   7.05305     17.704097
   7.08063     17.475615
   7.10821     17.250252
   7.13579     17.028084
   7.16336     16.809466
   7.19094     16.594650
   7.21852     16.383864
   7.24610     16.177317
   7.27368     15.975208
   7.30125     15.777724
   7.32883     15.585048
   7.35641     15.397356
   7.38399     15.214821
   7.41156     15.037615
   7.43914     14.865908
   7.46672     14.699878
   7.49430     14.539678
   7.52188     14.385474
   7.54945     14.237463
   7.57703     14.095774
   7.60461     13.960594
   7.63219     13.832086
   7.65976     13.710416
   7.68734     13.595744
   7.71492     13.488137
   7.71492     13.488137
   7.73084     13.470525
   7.74676     13.418728
   7.76269     13.335119
   7.77861     13.223493
   7.79453     13.088006
   7.81045     12.932744
   7.82637     12.761417
   7.84230     12.577226
   7.85822     12.382829
   7.87414     12.180434
   7.89006     11.971830
   7.90598     11.758343
   7.92191     11.541415
   7.93783     11.321898
   7.95375     11.100613
   7.96967     10.878255
   7.98559     10.655428
   8.00152     10.432665
   8.01744     10.210448
   8.03336      9.989237
   8.04928      9.769492
   8.06521      9.551671
   8.08113      9.336257
   8.09705      9.123775
   8.11297      8.914820
   8.12889      8.710084
   8.14482      8.510386
   8.16074      8.316724
   8.17666      8.130324
   8.19258      7.952701
   8.20850      7.785761
   8.22443      7.631840
   8.24035      7.493725
   8.25627      7.374523
   8.27219      7.277241
   8.28811      7.203984
   8.30404      7.155000
   8.31996      7.128295
   8.33588      7.120294
   8.33588      7.120294
   8.36772      7.151242
   8.39957      7.241434
   8.43141      7.384084
   8.46326      7.570800
   8.49510      7.793624
   8.52694      8.045977
   8.55879      8.322761
   8.59063      8.620117
   8.62248      8.935177
   8.65432      9.265750
   8.68617      9.610138
   8.71801      9.966986
   8.74985     10.335212
   8.78170     10.713895
   8.81354     11.102351
   8.84539     11.499652
   8.87723     11.905255
   8.90907     12.318650
   8.94092     12.739240
   8.97276     13.166474
   9.00461     13.599786
   9.03645     14.038573
   9.06829     14.482247
   9.10014     14.930180
   9.13198     15.381527
   9.16383     15.835472
   9.19567     16.290997
   9.22751     16.746852
   9.25936     17.201689
   9.29120     17.653350
   9.32305     18.099287
   9.35489     18.536631
   9.38674     18.960668
   9.41858     19.364969
   9.45042     19.740070
   9.48227     20.072363
   9.51411     20.341590
   9.54596     20.521288
   9.57780     20.585115
   9.57780     20.585115
   9.60538     20.538063
   9.63296     20.414597
   9.66053     20.255308
   9.68811     20.099408
   9.71569     19.966845
   9.74327     19.784143
   9.77084     19.565586
   9.79842     19.339102
   9.82600     19.107709
   9.85358     18.873534
   9.88116     18.638143
   9.90873     18.402707
   9.93631     18.168094
   9.96389     17.935041
   9.99147     17.704097
  10.01904     17.475615
  10.04662     17.250252
  10.07420     17.028084
  10.10178     16.809466
  10.12936     16.594650
  10.15693     16.383864
  10.18451     16.177317
  10.21209     15.975208
  10.23967     15.777724
  10.26725     15.585048
  10.29482     15.397356
  10.32240     15.214821
  10.34998     15.037615
  10.37756     14.865908
  10.40513     14.699878
  10.43271     14.539678
  10.46029     14.385474
  10.48787     14.237463
  10.51545     14.095774
  10.54302     13.960594
  10.57060     13.832086
  10.59818     13.710416
  10.62576     13.595744
  10.65333     13.488137
  10.65333     13.488137
  10.66926     13.385327
  10.68518     13.284767
  10.70110     13.186367
  10.71702     13.090213
  10.73294     12.996335
  10.74887     12.904760
  10.76479     12.815518
  10.78071     12.728638
  10.79663     12.644148
  10.81255     12.562078
  10.82848     12.482457
  10.84440     12.405313
  10.86032     12.330676
  10.87624     12.258572
  10.89217     12.189032
  10.90809     12.122005
  10.92401     12.057673
  10.93993     11.995986
  10.95585     11.936969
  10.97178     11.880650
  10.98770     11.827052
  11.00362     11.776200
  11.01954     11.728118
  11.03546     11.682800
  11.05139     11.640323
  11.06731     11.600679
  11.08323     11.563890
  11.09915     11.529974
  11.11507     11.498947
  11.13100     11.470825
  11.14692     11.445624
  11.16284     11.423355
  11.17876     11.404032
  11.19468     11.387664
  11.21061     11.374260
  11.22653     11.363827
  11.24245     11.356371
  11.25837     11.351895
  11.27429     11.350403
 
# Band-Index   10
  11.27429     15.933287
  11.25837     15.942164
  11.24245     15.968257
  11.22653     16.010028
  11.21061     16.065151
  11.19468     16.130806
  11.17876     16.203979
  11.16284     16.281727
  11.14692     16.361382
  11.13100     16.440705
  11.11507     16.517944
  11.09915     16.591849
  11.08323     16.661637
  11.06731     16.726920
  11.05139     16.787627
  11.03546     16.843910
  11.01954     16.896082
  11.00362     16.944499
  10.98770     16.989597
  10.97178     17.031803
  10.95585     17.071528
  10.93993     17.109158
  10.92401     17.145042
  10.90809     17.179496
  10.89217     17.212896
  10.87624     17.245304
  10.86032     17.277035
  10.84440     17.308287
  10.82848     17.339232
  10.81255     17.370024
  10.79663     17.400802
  10.78071     17.431688
  10.76479     17.462794
  10.74887     17.494219
  10.73294     17.526053
  10.71702     17.558380
  10.70110     17.591275
  10.68518     17.624809
  10.66926     17.659009
  10.65333     17.694009
  10.65333     17.694009
  10.62576     17.730579
  10.59818     17.769482
  10.57060     17.810715
  10.54302     17.854268
  10.51545     17.900128
  10.48787     17.948279
  10.46029     17.998691
  10.43271     18.051349
  10.40513     18.106210
  10.37756     18.162895
  10.34998     18.221996
  10.32240     18.283156
  10.29482     18.346311
  10.26725     18.411386
  10.23967     18.478292
  10.21209     18.546990
  10.18451     18.617130
  10.15693     18.688853
  10.12936     18.761909
  10.10178     18.836133
  10.07420     18.911342
  10.04662     18.987334
  10.01904     19.063895
   9.99147     19.140680
   9.96389     19.217712
   9.93631     19.294691
   9.90873     19.371599
   9.88116     19.448203
   9.85358     19.524842
   9.82600     19.602142
   9.79842     19.681320
   9.77084     19.765169
   9.74327     19.857883
   9.71569     19.990836
   9.68811     20.179927
   9.66053     20.343771
   9.63296     20.472714
   9.60538     20.556128
   9.57780     20.585115
   9.57780     20.585115
   9.54596     20.548394
   9.51411     20.462331
   9.48227     20.375533
   9.45042     20.321335
   9.41858     20.306217
   9.38674     20.323585
   9.35489     20.365962
   9.32305     20.428045
   9.29120     20.506751
   9.25936     20.599444
   9.22751     20.705000
   9.19567     20.822571
   9.16383     20.951454
   9.13198     21.091139
   9.10014     21.241216
   9.06829     21.401808
   9.03645     21.571644
   9.00461     21.750936
   8.97276     21.939424
   8.94092     22.136851
   8.90907     22.342973
   8.87723     22.557543
   8.84539     22.780557
   8.81354     23.011283
   8.78170     23.249688
   8.74985     23.495537
   8.71801     23.748505
   8.68617     24.008280
   8.65432     24.274414
   8.62248     24.546447
   8.59063     24.823743
   8.55879     25.105415
   8.52694     25.390134
   8.49510     25.675783
   8.46326     25.958638
   8.43141     26.231539
   8.39957     26.479467
   8.36772     26.669921
   8.33588     26.746348
   8.33588     26.746348
   8.31996     26.544922
   8.30404     26.327593
   8.28811     26.097397
   8.27219     25.856813
   8.25627     25.607723
   8.24035     25.351605
   8.22443     25.089691
   8.20850     24.823005
   8.19258     24.552423
   8.17666     24.278705
   8.16074     24.002519
   8.14482     23.724454
   8.12889     23.445037
   8.11297     23.164750
   8.09705     22.884033
   8.08113     22.603290
   8.06521     22.322914
   8.04928     22.043291
   8.03336     21.764799
   8.01744     21.487821
   8.00152     21.212757
   7.98559     20.940030
   7.96967     20.670106
   7.95375     20.403505
   7.93783     20.140819
   7.92191     19.882738
   7.90598     19.630070
   7.89006     19.383984
   7.87414     19.145312
   7.85822     18.915698
   7.84230     18.696936
   7.82637     18.491223
   7.81045     18.301237
   7.79453     18.130181
   7.77861     17.981770
   7.76269     17.860095
   7.74676     17.769302
   7.73084     17.713060
   7.71492     17.694009
   7.71492     17.694009
   7.68734     17.730579
   7.65976     17.769482
   7.63219     17.810715
   7.60461     17.854268
   7.57703     17.900128
   7.54945     17.948279
   7.52188     17.998691
   7.49430     18.051349
   7.46672     18.106210
   7.43914     18.162895
   7.41156     18.221996
   7.38399     18.283156
   7.35641     18.346311
   7.32883     18.411386
   7.30125     18.478292
   7.27368     18.546990
   7.24610     18.617130
   7.21852     18.688853
   7.19094     18.761909
   7.16336     18.836133
   7.13579     18.911342
   7.10821     18.987334
   7.08063     19.063895
   7.05305     19.140680
   7.02547     19.217712
   6.99790     19.294691
   6.97032     19.371599
   6.94274     19.448203
   6.91516     19.524842
   6.88759     19.602142
   6.86001     19.681320
   6.83243     19.765169
   6.80485     19.857883
   6.77727     19.990836
   6.74970     20.179927
   6.72212     20.343771
   6.69454     20.472714
   6.66696     20.556128
   6.63939     20.585115
   6.63939     20.585115
   6.60038     20.586249
   6.56138     20.589700
   6.52238     20.596069
   6.48338     20.604681
   6.44438     20.616324
   6.40538     20.631353
   6.36638     20.650147
   6.32738     20.673087
   6.28838     20.700541
   6.24938     20.732855
   6.21038     20.770342
   6.17137     20.813229
   6.13237     20.861884
   6.09337     20.916463
   6.05437     20.977382
   6.01537     21.044326
   5.97637     21.117689
   5.93737     21.197591
   5.89837     21.284124
   5.85937     21.377361
   5.82037     21.477347
   5.78137     21.584099
   5.74236     21.697600
   5.70336     21.817745
   5.66436     21.944511
   5.62536     22.077669
   5.58636     22.216940
   5.54736     22.361915
   5.50836     22.512002
   5.46936     22.666379
   5.43036     22.823862
   5.39136     22.982763
   5.35236     23.140658
   5.31335     23.294075
   5.27435     23.438066
   5.23535     23.565779
   5.19635     23.667678
   5.15735     23.734000
   5.11835     23.757567
   5.11835     23.757567
   5.07058     23.771499
   5.02282     23.811106
   4.97505     23.876626
   4.92729     23.968028
   4.87952     24.084967
   4.83175     24.226987
   4.78399     24.393490
   4.73622     24.583673
   4.68846     24.796387
   4.64069     25.029768
   4.59292     25.280112
   4.54516     25.366026
   4.49739     24.954914
   4.44962     24.534776
   4.40186     24.389513
   4.35409     24.639466
   4.30633     24.033655
   4.25856     23.429944
   4.21079     22.833145
   4.16303     22.245428
   4.11526     21.705292
   4.06749     21.347897
   4.01973     21.006435
   3.97196     20.681509
   3.92420     20.373497
   3.87643     20.082581
   3.82866     19.808767
   3.78090     19.551686
   3.73313     19.311601
   3.68537     19.087684
   3.63760     18.879420
   3.58983     18.686459
   3.54207     18.508491
   3.49430     18.343680
   3.44653     18.191784
   3.39877     18.051901
   3.35100     17.923047
   3.30324     17.804151
   3.25547     17.694009
   3.25547     17.694009
   3.23955     17.713060
   3.22363     17.769302
   3.20770     17.860095
   3.19178     17.981770
   3.17586     18.130181
   3.15994     18.301237
   3.14402     18.491223
   3.12809     18.696936
   3.11217     18.915698
   3.09625     19.145312
   3.08033     19.383984
   3.06441     19.630070
   3.04848     19.882738
   3.03256     20.140819
   3.01664     20.403505
   3.00072     20.670106
   2.98480     20.940030
   2.96887     21.212757
   2.95295     21.487821
   2.93703     21.764799
   2.92111     22.043291
   2.90519     22.322914
   2.88926     22.603290
   2.87334     22.884033
   2.85742     23.164750
   2.84150     23.445037
   2.82557     23.724454
   2.80965     24.002519
   2.79373     24.278705
   2.77781     24.552423
   2.76189     24.823005
   2.74596     25.089691
   2.73004     25.351605
   2.71412     25.607723
   2.69820     25.856813
   2.68228     26.097397
   2.66635     26.327593
   2.65043     26.544922
   2.63451     26.746348
   2.63451     26.746348
   2.61199     26.364488
   2.58948     25.986930
   2.56696     25.612900
   2.54444     25.242424
   2.52192     24.875518
   2.49941     24.512224
   2.47689     24.152576
   2.45437     23.796612
   2.43186     23.444371
   2.40934     23.095893
   2.38682     22.751229
   2.36430     22.410435
   2.34179     22.073573
   2.31927     21.740701
   2.29675     21.411921
   2.27424     21.087337
   2.25172     20.767136
   2.22920     20.451314
   2.20668     20.140118
   2.18417     19.833749
   2.16165     19.532445
   2.13913     19.236568
   2.11662     18.946281
   2.09410     18.662094
   2.07158     18.384533
   2.04906     18.114203
   2.02655     17.851856
   2.00403     17.598406
   1.98151     17.354977
   1.95899     17.122870
   1.93648     16.903914
   1.91396     16.700052
   1.89144     16.513688
   1.86893     16.347648
   1.84641     16.205086
   1.82389     16.089357
   1.80137     16.003743
   1.77886     15.951074
   1.75634     15.933287
   1.75634     15.933287
   1.71131     15.936616
   1.66627     15.946613
   1.62124     15.963307
   1.57620     15.986745
   1.53117     16.016992
   1.48613     16.054131
   1.44110     16.098265
   1.39607     16.149512
   1.35103     16.208003
   1.30600     16.273885
   1.26096     16.347320
   1.21593     16.428483
   1.17089     16.517383
   1.12586     16.614494
   1.08082     16.719884
   1.03579     16.833745
   0.99076     16.956269
   0.94572     17.087622
   0.90069     17.227975
   0.85565     17.377467
   0.81062     17.645968
   0.76558     18.254530
   0.72055     18.811201
   0.67552     19.314800
   0.63048     19.771036
   0.58545     20.189446
   0.54041     20.580201
   0.49538     20.951760
   0.45034     21.310010
   0.40531     21.658256
   0.36027     21.997428
   0.31524     22.326222
   0.27021     22.641115
   0.22517     22.936256
   0.18014     23.202794
   0.13510     23.430925
   0.09007     23.607572
   0.04503     23.719644
   0.00000     23.757567
 
# Band-Index   11
   0.00000     26.283632
   0.04503     26.330439
   0.09007     26.467746
   0.13510     26.687589
   0.18014     26.979650
   0.22517     27.333496
   0.27021     27.739692
   0.31524     28.190786
   0.36027     28.249907
   0.40531     27.434802
   0.45034     26.611890
   0.49538     25.797079
   0.54041     25.002446
   0.58545     24.239435
   0.63048     23.520199
   0.67552     22.857623
   0.72055     22.263202
   0.76558     21.743847
   0.81062     21.299457
   0.85565     20.923437
   0.90069     20.605763
   0.94572     20.336093
   0.99076     20.105525
   1.03579     19.906993
   1.08082     19.735082
   1.12586     19.585671
   1.17089     19.455579
   1.21593     19.342362
   1.26096     19.243888
   1.30600     19.158557
   1.35103     19.084992
   1.39607     19.022027
   1.44110     18.968745
   1.48613     18.924116
   1.53117     18.887529
   1.57620     18.858396
   1.62124     18.836233
   1.66627     18.820666
   1.71131     18.811430
   1.75634     18.808368
   1.75634     18.808368
   1.77886     18.822015
   1.80137     18.862738
   1.82389     18.929901
   1.84641     19.022509
   1.86893     19.139277
   1.89144     19.278725
   1.91396     19.439262
   1.93648     19.619256
   1.95899     19.817112
   1.98151     20.031299
   2.00403     20.260380
   2.02655     20.503029
   2.04906     20.758028
   2.07158     21.024269
   2.09410     21.300743
   2.11662     21.586601
   2.13913     21.880853
   2.16165     22.182777
   2.18417     22.491655
   2.20668     22.806791
   2.22920     23.127508
   2.25172     23.453237
   2.27424     23.782961
   2.29675     24.116271
   2.31927     24.452275
   2.34179     24.790078
   2.36430     25.128626
   2.38682     25.466695
   2.40934     25.802757
   2.43186     26.134880
   2.45437     26.460570
   2.47689     26.776548
   2.49941     27.078454
   2.52192     27.360468
   2.54444     27.614903
   2.56696     27.831961
   2.58948     27.518934
   2.61199     27.130939
   2.63451     26.746435
   2.63451     26.746435
   2.65043     26.938309
   2.66635     27.132234
   2.68228     27.327842
   2.69820     27.525130
   2.71412     27.724098
   2.73004     27.924742
   2.74596     28.099921
   2.76189     28.081296
   2.77781     28.060390
   2.79373     28.037655
   2.80965     28.013519
   2.82557     27.988366
   2.84150     27.962537
   2.85742     27.936332
   2.87334     27.910011
   2.88926     27.883797
   2.90519     27.857884
   2.92111     27.832436
   2.93703     27.807596
   2.95295     27.783483
   2.96887     27.760202
   2.98480     27.737840
   3.00072     27.716475
   3.01664     27.696170
   3.03256     27.676980
   3.04848     27.658953
   3.06441     27.642131
   3.08033     27.626694
   3.09625     27.612382
   3.11217     27.599366
   3.12809     27.587669
   3.14402     27.577310
   3.15994     27.568304
   3.17586     27.560665
   3.19178     27.554402
   3.20770     27.549524
   3.22363     27.546039
   3.23955     27.543749
   3.25547     27.543049
   3.25547     27.543049
   3.30324     28.560439
   3.35100     29.593908
   3.39877     30.641062
   3.44653     31.698385
   3.49430     32.610338
   3.54207     32.197055
   3.58983     31.798943
   3.63760     31.274707
   3.68537     30.727233
   3.73313     30.194542
   3.78090     29.676893
   3.82866     29.174429
   3.87643     28.687187
   3.92420     28.215352
   3.97196     27.759078
   4.01973     27.318529
   4.06749     26.893919
   4.11526     26.485483
   4.16303     26.093492
   4.21079     25.717576
   4.25856     25.359445
   4.30633     25.015985
   4.35409     24.693440
   4.40186     25.229767
   4.44962     25.708896
   4.49739     25.758646
   4.54516     25.537374
   4.59292     25.761150
   4.64069     26.131898
   4.68846     26.468256
   4.73622     26.575357
   4.78399     26.506237
   4.83175     26.446717
   4.87952     26.396636
   4.92729     26.355857
   4.97505     26.324267
   5.02282     26.301776
   5.07058     26.288304
   5.11835     26.283632
   5.11835     26.283632
   5.15735     26.315922
   5.19635     26.409164
   5.23535     26.554290
   5.27435     26.740723
   5.31335     26.958641
   5.35236     27.199635
   5.39136     27.456290
   5.43036     27.721135
   5.46936     27.985042
   5.50836     28.117122
   5.54736     28.107741
   5.58636     28.096758
   5.62536     28.088703
   5.66436     28.086586
   5.70336     28.092299
   5.74236     28.099737
   5.78137     27.811269
   5.82037     27.507017
   5.85937     27.197712
   5.89837     26.889743
   5.93737     26.587112
   5.97637     26.292490
   6.01537     26.007768
   6.05437     25.734367
   6.09337     25.473177
   6.13237     25.225712
   6.17137     24.992533
   6.21038     24.774966
   6.24938     24.572572
   6.28838     24.386664
   6.32738     24.217920
   6.36638     24.067004
   6.40538     23.934565
   6.44438     23.821226
   6.48338     23.727569
   6.52238     23.654119
   6.56138     23.601137
   6.60038     23.569306
   6.63939     23.558671
   6.63939     23.558671
   6.66696     23.591271
   6.69454     23.685504
   6.72212     23.832492
   6.74970     24.021607
   6.77727     24.243191
   6.80485     24.489596
   6.83243     24.755361
   6.86001     25.035979
   6.88759     25.328704
   6.91516     25.631392
   6.94274     25.942458
   6.97032     26.260702
   6.99790     26.584952
   7.02547     26.914908
   7.05305     27.249757
   7.08063     27.588968
   7.10821     27.932158
   7.13579     28.278743
   7.16336     28.628367
   7.19094     28.980601
   7.21852     29.334996
   7.24610     29.691061
   7.27368     30.048243
   7.30125     30.405945
   7.32883     30.763455
   7.35641     31.119942
   7.38399     31.336294
   7.41156     31.204132
   7.43914     30.955220
   7.46672     30.648536
   7.49430     30.315290
   7.52188     29.970029
   7.54945     29.620183
   7.57703     29.268576
   7.60461     28.917793
   7.63219     28.569135
   7.65976     28.223451
   7.68734     27.881326
   7.71492     27.543049
   7.71492     27.543049
   7.73084     27.543749
   7.74676     27.546039
   7.76269     27.549524
   7.77861     27.554402
   7.79453     27.560665
   7.81045     27.568304
   7.82637     27.577310
   7.84230     27.587669
   7.85822     27.599366
   7.87414     27.612382
   7.89006     27.626694
   7.90598     27.642131
   7.92191     27.658953
   7.93783     27.676980
   7.95375     27.696170
   7.96967     27.716475
   7.98559     27.737840
   8.00152     27.760202
   8.01744     27.783483
   8.03336     27.807596
   8.04928     27.832436
   8.06521     27.857884
   8.08113     27.883797
   8.09705     27.910011
   8.11297     27.936332
   8.12889     27.962537
   8.14482     27.988366
   8.16074     28.013519
   8.17666     28.037655
   8.19258     28.060390
   8.20850     28.081296
   8.22443     28.099921
   8.24035     27.924742
   8.25627     27.724098
   8.27219     27.525130
   8.28811     27.327842
   8.30404     27.132234
   8.31996     26.938309
   8.33588     26.746435
   8.33588     26.746435
   8.36772     26.742243
   8.39957     26.731265
   8.43141     26.713220
   8.46326     26.688469
   8.49510     26.657481
   8.52694     26.620806
   8.55879     26.579039
   8.59063     26.532800
   8.62248     26.482703
   8.65432     26.429333
   8.68617     26.373753
   8.71801     26.315341
   8.74985     26.255105
   8.78170     26.193368
   8.81354     26.130710
   8.84539     26.066660
   8.87723     26.001535
   8.90907     25.935591
   8.94092     25.868627
   8.97276     25.800457
   9.00461     25.730782
   9.03645     25.659167
   9.06829     25.585037
   9.10014     25.508031
   9.13198     25.426390
   9.16383     25.339373
   9.19567     25.245567
   9.22751     25.143315
   9.25936     25.030786
   9.29120     24.905974
   9.32305     24.766973
   9.35489     24.612715
   9.38674     24.443012
   9.41858     24.260017
   9.45042     24.069331
   9.48227     23.882587
   9.51411     23.718085
   9.54596     23.601447
   9.57780     23.558671
   9.57780     23.558671
   9.60538     23.591271
   9.63296     23.685504
   9.66053     23.832492
   9.68811     24.021607
   9.71569     24.243191
   9.74327     24.489596
   9.77084     24.755361
   9.79842     25.035979
   9.82600     25.328704
   9.85358     25.631392
   9.88116     25.942458
   9.90873     26.260702
   9.93631     26.584952
   9.96389     26.914908
   9.99147     27.249757
  10.01904     27.588968
  10.04662     27.932158
  10.07420     28.278743
  10.10178     28.628367
  10.12936     28.980601
  10.15693     29.334996
  10.18451     29.691061
  10.21209     30.048243
  10.23967     30.405945
  10.26725     30.763455
  10.29482     31.119942
  10.32240     31.336294
  10.34998     31.204132
  10.37756     30.955220
  10.40513     30.648536
  10.43271     30.315290
  10.46029     29.970029
  10.48787     29.620183
  10.51545     29.268576
  10.54302     28.917793
  10.57060     28.569135
  10.59818     28.223451
  10.62576     27.881326
  10.65333     27.543049
  10.65333     27.543049
  10.66926     27.208070
  10.68518     26.875387
  10.70110     26.544853
  10.71702     26.216712
  10.73294     25.891080
  10.74887     25.568080
  10.76479     25.247846
  10.78071     24.930527
  10.79663     24.616285
  10.81255     24.305303
  10.82848     23.997784
  10.84440     23.693947
  10.86032     23.394056
  10.87624     23.098408
  10.89217     22.807335
  10.90809     22.521081
  10.92401     22.240347
  10.93993     21.965483
  10.95585     21.697041
  10.97178     21.435647
  10.98770     21.182006
  11.00362     20.936899
  11.01954     20.701194
  11.03546     20.475831
  11.05139     20.261811
  11.06731     20.060146
  11.08323     19.871837
  11.09915     19.697811
  11.11507     19.538864
  11.13100     19.395604
  11.14692     19.268405
  11.16284     19.157390
  11.17876     19.062445
  11.19468     18.983267
  11.21061     18.919422
  11.22653     18.870425
  11.24245     18.835812
  11.25837     18.815208
  11.27429     18.808368
 
# Band-Index   12
  11.27429     40.767859
  11.25837     40.758218
  11.24245     40.729509
  11.22653     40.682350
  11.21061     40.617707
  11.19468     40.536813
  11.17876     40.441075
  11.16284     40.331984
  11.14692     40.211041
  11.13100     40.079701
  11.11507     39.939331
  11.09915     39.791189
  11.08323     39.636414
  11.06731     39.476024
  11.05139     39.310921
  11.03546     39.141899
  11.01954     38.969654
  11.00362     38.794794
  10.98770     38.617851
  10.97178     38.439289
  10.95585     38.259512
  10.93993     38.078874
  10.92401     37.897686
  10.90809     37.716220
  10.89217     37.535116
  10.87624     37.353730
  10.86032     37.172701
  10.84440     36.992193
  10.82848     36.812351
  10.81255     36.633302
  10.79663     36.455160
  10.78071     36.278026
  10.76479     36.101988
  10.74887     35.927128
  10.73294     35.753517
  10.71702     35.581218
  10.70110     35.410289
  10.68518     35.240780
  10.66926     35.070453
  10.65333     34.903935
  10.65333     34.903935
  10.62576     34.729954
  10.59818     34.525959
  10.57060     34.296805
  10.54302     34.043944
  10.51545     33.769638
  10.48787     33.476622
  10.46029     33.167636
  10.43271     32.845773
  10.40513     32.513446
  10.37756     32.172452
  10.34998     31.825723
  10.32240     31.474422
  10.29482     31.298527
  10.26725     31.117270
  10.23967     30.857571
  10.21209     30.561334
  10.18451     30.247418
  10.15693     29.925388
  10.12936     29.599848
  10.10178     29.273217
  10.07420     28.946741
  10.04662     28.620971
  10.01904     28.295629
   9.99147     27.970461
   9.96389     27.646078
   9.93631     27.321009
   9.90873     26.994406
   9.88116     26.665393
   9.85358     26.333241
   9.82600     25.997554
   9.79842     25.658560
   9.77084     25.317505
   9.74327     24.976894
   9.71569     24.642280
   9.68811     24.321871
   9.66053     24.029272
   9.63296     23.785352
   9.60538     23.618689
   9.57780     23.558671
   9.57780     23.558671
   9.54596     23.638686
   9.51411     23.861148
   9.48227     24.188977
   9.45042     24.588296
   9.41858     25.035878
   9.38674     25.517179
   9.35489     26.023298
   9.32305     26.548644
   9.29120     27.090143
   9.25936     27.644317
   9.22751     28.209965
   9.19567     28.785911
   9.16383     29.371215
   9.13198     29.965199
   9.10014     30.567305
   9.06829     31.178938
   9.03645     31.795883
   9.00461     32.419452
   8.97276     33.048722
   8.94092     33.680793
   8.90907     34.269254
   8.87723     34.056057
   8.84539     33.642505
   8.81354     33.226311
   8.78170     32.813275
   8.74985     32.405014
   8.71801     32.001791
   8.68617     31.604283
   8.65432     31.212175
   8.62248     30.826418
   8.59063     30.447531
   8.55879     30.076353
   8.52694     29.714151
   8.49510     29.363003
   8.46326     29.026615
   8.43141     28.712116
   8.39957     28.434502
   8.36772     28.226257
   8.33588     28.144430
   8.33588     28.144430
   8.31996     28.145159
   8.30404     28.145466
   8.28811     28.143286
   8.27219     28.137720
   8.25627     28.128517
   8.24035     28.115805
   8.22443     28.127061
   8.20850     28.331050
   8.19258     28.536702
   8.17666     28.744009
   8.16074     28.952971
   8.14482     29.163580
   8.12889     29.375827
   8.11297     29.589703
   8.09705     29.805195
   8.08113     30.022289
   8.06521     30.240967
   8.04928     30.461210
   8.03336     30.682994
   8.01744     30.906289
   8.00152     31.131060
   7.98559     31.357263
   7.96967     31.584848
   7.95375     31.813747
   7.93783     32.043875
   7.92191     32.275123
   7.90598     32.507357
   7.89006     32.742399
   7.87414     32.975980
   7.85822     33.209750
   7.84230     33.443194
   7.82637     33.675542
   7.81045     33.905586
   7.79453     34.131343
   7.77861     34.349375
   7.76269     34.553357
   7.74676     34.731194
   7.73084     34.854974
   7.71492     34.903935
   7.71492     34.903935
   7.68734     34.729954
   7.65976     34.525959
   7.63219     34.296805
   7.60461     34.043944
   7.57703     33.769638
   7.54945     33.476622
   7.52188     33.167636
   7.49430     32.845773
   7.46672     32.513446
   7.43914     32.172452
   7.41156     31.825723
   7.38399     31.474422
   7.35641     31.298527
   7.32883     31.117270
   7.30125     30.857571
   7.27368     30.561334
   7.24610     30.247418
   7.21852     29.925388
   7.19094     29.599848
   7.16336     29.273217
   7.13579     28.946741
   7.10821     28.620971
   7.08063     28.295629
   7.05305     27.970461
   7.02547     27.646078
   6.99790     27.321009
   6.97032     26.994406
   6.94274     26.665393
   6.91516     26.333241
   6.88759     25.997554
   6.86001     25.658560
   6.83243     25.317505
   6.80485     24.976894
   6.77727     24.642280
   6.74970     24.321871
   6.72212     24.029272
   6.69454     23.785352
   6.66696     23.618689
   6.63939     23.558671
   6.63939     23.558671
   6.60038     23.569306
   6.56138     23.601137
   6.52238     23.654119
   6.48338     23.727569
   6.44438     23.821226
   6.40538     23.934565
   6.36638     24.067004
   6.32738     24.217920
   6.28838     24.386664
   6.24938     24.572572
   6.21038     24.774966
   6.17137     24.992533
   6.13237     25.225712
   6.09337     25.473177
   6.05437     25.734367
   6.01537     26.007768
   5.97637     26.292490
   5.93737     26.587112
   5.89837     26.889743
   5.85937     27.197712
   5.82037     27.507017
   5.78137     27.811269
   5.74236     28.099737
   5.70336     28.353612
   5.66436     28.543417
   5.62536     28.630767
   5.58636     28.593520
   5.54736     28.448601
   5.50836     28.234683
   5.46936     27.985042
   5.43036     27.721136
   5.39136     27.456291
   5.35236     27.199635
   5.31335     26.958641
   5.27435     26.740723
   5.23535     26.554290
   5.19635     26.409164
   5.15735     26.315922
   5.11835     26.283727
   5.11835     26.283727
   5.07058     26.409283
   5.02282     26.685167
   4.97505     26.958124
   4.92729     27.138758
   4.87952     27.197676
   4.83175     27.141151
   4.78399     26.988230
   4.73622     26.758373
   4.68846     26.654262
   4.64069     26.743156
   4.59292     26.842264
   4.54516     26.951821
   4.49739     26.822948
   4.44962     26.546526
   4.40186     26.729683
   4.35409     27.054440
   4.30633     27.424610
   4.25856     27.823264
   4.21079     28.035409
   4.16303     28.239087
   4.11526     28.455968
   4.06749     28.686380
   4.01973     28.930644
   3.97196     29.189072
   3.92420     29.461955
   3.87643     29.749599
   3.82866     30.052279
   3.78090     30.370135
   3.73313     30.703606
   3.68537     31.052795
   3.63760     31.417866
   3.58983     31.837139
   3.54207     32.417370
   3.49430     32.760259
   3.44653     33.039672
   3.39877     33.484918
   3.35100     33.945830
   3.30324     34.417425
   3.25547     34.903935
   3.25547     34.903935
   3.23955     34.854974
   3.22363     34.731194
   3.20770     34.553357
   3.19178     34.349375
   3.17586     34.131344
   3.15994     33.905586
   3.14402     33.675542
   3.12809     33.443194
   3.11217     33.209750
   3.09625     32.975980
   3.08033     32.742399
   3.06441     32.507357
   3.04848     32.275123
   3.03256     32.043875
   3.01664     31.813747
   3.00072     31.584848
   2.98480     31.357263
   2.96887     31.131060
   2.95295     30.906289
   2.93703     30.682994
   2.92111     30.461210
   2.90519     30.240967
   2.88926     30.022289
   2.87334     29.805195
   2.85742     29.589703
   2.84150     29.375827
   2.82557     29.163580
   2.80965     28.952971
   2.79373     28.744009
   2.77781     28.536702
   2.76189     28.331050
   2.74596     28.127061
   2.73004     28.115805
   2.71412     28.128517
   2.69820     28.137720
   2.68228     28.143286
   2.66635     28.145466
   2.65043     28.145159
   2.63451     28.144430
   2.63451     28.144430
   2.61199     28.107329
   2.58948     28.000082
   2.56696     27.910329
   2.54444     28.305086
   2.52192     28.703153
   2.49941     29.104483
   2.47689     29.509031
   2.45437     29.916735
   2.43186     30.327523
   2.40934     30.741312
   2.38682     31.158004
   2.36430     31.577485
   2.34179     31.999619
   2.31927     32.424233
   2.29675     32.851155
   2.27424     33.280158
   2.25172     33.714222
   2.22920     34.144457
   2.20668     34.577643
   2.18417     35.011399
   2.16165     35.445121
   2.13913     35.878603
   2.11662     36.309816
   2.09410     36.734052
   2.07158     37.157686
   2.04906     37.575016
   2.02655     37.983641
   2.00403     38.380540
   1.98151     38.761965
   1.95899     39.123383
   1.93648     39.459572
   1.91396     39.764933
   1.89144     40.034097
   1.86893     40.262745
   1.84641     40.448337
   1.82389     40.590343
   1.80137     40.689815
   1.77886     40.748491
   1.75634     40.767859
   1.75634     40.767859
   1.71131     40.757404
   1.66627     40.726393
   1.62124     40.675846
   1.57620     40.607354
   1.53117     40.522920
   1.48613     40.430213
   1.44110     40.320412
   1.39607     40.201474
   1.35103     40.075831
   1.30600     39.945383
   1.26096     39.811934
   1.21593     39.654380
   1.17089     39.091757
   1.12586     38.539930
   1.08082     37.996075
   1.03579     37.459633
   0.99076     36.929869
   0.94572     36.405904
   0.90069     35.886728
   0.85565     35.371210
   0.81062     34.858128
   0.76558     34.346202
   0.72055     33.635809
   0.67552     32.930535
   0.63048     32.249286
   0.58545     31.590575
   0.54041     30.955393
   0.49538     30.345008
   0.45034     29.761007
   0.40531     29.205417
   0.36027     28.680868
   0.31524     29.029803
   0.27021     28.596542
   0.22517     28.081402
   0.18014     27.581899
   0.13510     27.114407
   0.09007     26.703614
   0.04503     26.400489
   0.00000     26.283727
 
# Band-Index   13
   0.00000     26.283727
   0.04503     26.400552
   0.09007     26.703679
   0.13510     27.114474
   0.18014     27.581969
   0.22517     28.081474
   0.27021     28.596618
   0.31524     29.120990
   0.36027     29.650070
   0.40531     30.180702
   0.45034     30.710780
   0.49538     31.238851
   0.54041     31.764000
   0.58545     32.285786
   0.63048     32.804194
   0.67552     33.319636
   0.72055     33.834179
   0.76558     34.346321
   0.81062     34.858250
   0.85565     35.371335
   0.90069     35.886854
   0.94572     36.406032
   0.99076     36.929998
   1.03579     37.459762
   1.08082     37.996205
   1.12586     38.540061
   1.17089     39.091894
   1.21593     39.654511
   1.26096     40.223680
   1.30600     40.802042
   1.35103     41.389731
   1.39607     41.986824
   1.44110     42.595529
   1.48613     43.211422
   1.53117     43.835998
   1.57620     44.470097
   1.62124     44.912873
   1.66627     44.999944
   1.71131     45.052763
   1.75634     45.070557
   1.75634     45.070557
   1.77886     45.001572
   1.80137     44.826869
   1.82389     44.603946
   1.84641     44.374379
   1.86893     44.161319
   1.89144     43.976479
   1.91396     43.824315
   1.93648     43.704829
   1.95899     43.615471
   1.98151     43.552566
   2.00403     43.465849
   2.02655     43.016595
   2.04906     42.563800
   2.07158     42.108655
   2.09410     41.652128
   2.11662     41.195144
   2.13913     40.738166
   2.16165     40.281633
   2.18417     39.826655
   2.20668     39.373499
   2.22920     38.922681
   2.25172     38.475787
   2.27424     38.030738
   2.29675     37.590141
   2.31927     37.154245
   2.34179     36.723836
   2.36430     36.299849
   2.38682     35.883454
   2.40934     35.476107
   2.43186     35.079677
   2.45437     34.696601
   2.47689     34.330108
   2.49941     33.984517
   2.52192     33.665612
   2.54444     33.381038
   2.56696     33.140558
   2.58948     32.955737
   2.61199     32.838500
   2.63451     32.799074
   2.63451     32.799074
   2.65043     32.809848
   2.66635     32.842832
   2.68228     32.896127
   2.69820     32.968175
   2.71412     33.057365
   2.73004     33.162100
   2.74596     33.280850
   2.76189     33.412188
   2.77781     33.554806
   2.79373     33.707521
   2.80965     33.869282
   2.82557     34.039160
   2.84150     34.216335
   2.85742     34.400086
   2.87334     34.589778
   2.88926     34.784853
   2.90519     34.984818
   2.92111     35.189234
   2.93703     35.397708
   2.95295     35.609888
   2.96887     35.825448
   2.98480     36.044089
   3.00072     36.265528
   3.01664     36.489490
   3.03256     36.715697
   3.04848     36.943863
   3.06441     37.173691
   3.08033     37.405509
   3.09625     37.637554
   3.11217     37.869996
   3.12809     37.745567
   3.14402     37.490864
   3.15994     37.241419
   3.17586     36.999235
   3.19178     36.767767
   3.20770     36.553354
   3.22363     36.368099
   3.23955     36.233480
   3.25547     36.183010
   3.25547     36.183010
   3.30324     35.520407
   3.35100     34.871341
   3.39877     34.236237
   3.44653     33.615463
   3.49430     33.009139
   3.54207     33.814914
   3.58983     34.828931
   3.63760     34.492157
   3.68537     33.901547
   3.73313     33.321722
   3.78090     32.752501
   3.82866     32.196201
   3.87643     31.651771
   3.92420     31.120352
   3.97196     30.602547
   4.01973     30.098970
   4.06749     29.610349
   4.11526     29.137453
   4.16303     28.681170
   4.21079     28.242598
   4.25856     27.844604
   4.30633     27.666114
   4.35409     27.500074
   4.40186     27.345936
   4.44962     27.203387
   4.49739     27.072097
   4.54516     27.402345
   4.59292     28.049500
   4.64069     28.721797
   4.68846     29.409333
   4.73622     30.108275
   4.78399     30.285305
   4.83175     29.558175
   4.87952     28.840409
   4.92729     28.143779
   4.97505     27.486390
   5.02282     26.901355
   5.07058     26.459226
   5.11835     26.283727
   5.11835     26.283727
   5.15735     26.426378
   5.19635     26.764582
   5.23535     27.156310
   5.27435     27.508995
   5.31335     27.776664
   5.35236     27.952108
   5.39136     28.052586
   5.43036     28.101441
   5.46936     28.118257
   5.50836     28.234683
   5.54736     28.448601
   5.58636     28.593520
   5.62536     28.630767
   5.66436     28.543417
   5.70336     28.353612
   5.74236     28.107662
   5.78137     28.131374
   5.82037     28.163992
   5.85937     28.204879
   5.89837     28.253092
   5.93737     28.307497
   5.97637     28.366834
   6.01537     28.429808
   6.05437     28.495127
   6.09337     28.561536
   6.13237     28.627875
   6.17137     28.693067
   6.21038     28.757149
   6.24938     28.817089
   6.28838     28.873289
   6.32738     28.925113
   6.36638     28.972012
   6.40538     29.013523
   6.44438     29.049268
   6.48338     29.078947
   6.52238     29.102319
   6.56138     29.118034
   6.60038     29.128089
   6.63939     29.131448
   6.63939     29.131448
   6.66696     29.152354
   6.69454     29.215029
   6.72212     29.319334
   6.74970     29.464974
   6.77727     29.651422
   6.80485     29.877825
   6.83243     30.142969
   6.86001     30.444982
   6.88759     30.781933
   6.91516     31.150811
   6.94274     31.548834
   6.97032     31.972736
   6.99790     32.418897
   7.02547     32.883350
   7.05305     33.360937
   7.08063     33.844212
   7.10821     34.315641
   7.13579     34.727251
   7.16336     34.937481
   7.19094     34.820971
   7.21852     34.528117
   7.24610     34.183990
   7.27368     33.832493
   7.30125     33.492984
   7.32883     33.192166
   7.35641     32.972923
   7.38399     32.901051
   7.41156     33.003018
   7.43914     33.225187
   7.46672     33.511149
   7.49430     33.821565
   7.52188     34.143708
   7.54945     34.468815
   7.57703     34.790212
   7.60461     35.103126
   7.63219     35.403011
   7.65976     35.685570
   7.68734     35.946840
   7.71492     36.183010
   7.71492     36.183010
   7.73084     36.233480
   7.74676     36.368099
   7.76269     36.553354
   7.77861     36.767767
   7.79453     36.999235
   7.81045     37.241419
   7.82637     37.490864
   7.84230     37.745567
   7.85822     37.869996
   7.87414     37.637554
   7.89006     37.405509
   7.90598     37.173691
   7.92191     36.943863
   7.93783     36.715697
   7.95375     36.489490
   7.96967     36.265528
   7.98559     36.044089
   8.00152     35.825448
   8.01744     35.609888
   8.03336     35.397708
   8.04928     35.189234
   8.06521     34.984818
   8.08113     34.784853
   8.09705     34.589778
   8.11297     34.400086
   8.12889     34.216335
   8.14482     34.039160
   8.16074     33.869282
   8.17666     33.707521
   8.19258     33.554806
   8.20850     33.412188
   8.22443     33.280850
   8.24035     33.162100
   8.25627     33.057365
   8.27219     32.968175
   8.28811     32.896127
   8.30404     32.842832
   8.31996     32.809848
   8.33588     32.799074
   8.33588     32.799074
   8.36772     32.808734
   8.39957     32.840135
   8.43141     32.892202
   8.46326     32.964494
   8.49510     33.056423
   8.52694     33.167284
   8.55879     33.296277
   8.59063     33.442521
   8.62248     33.605081
   8.65432     33.782956
   8.68617     33.975082
   8.71801     34.179948
   8.74985     34.396710
   8.78170     34.623338
   8.81354     34.858469
   8.84539     35.096113
   8.87723     35.004328
   8.90907     34.569087
   8.94092     34.945577
   8.97276     35.375819
   9.00461     35.614954
   9.03645     35.252091
   9.06829     34.779634
   9.10014     34.263703
   9.13198     33.735440
   9.16383     33.208975
   9.19567     32.692740
   9.22751     32.192816
   9.25936     31.714521
   9.29120     31.262709
   9.32305     30.841950
   9.35489     30.458425
   9.38674     30.116534
   9.41858     29.820788
   9.45042     29.574894
   9.48227     29.381677
   9.51411     29.242850
   9.54596     29.159320
   9.57780     29.131448
   9.57780     29.131448
   9.60538     29.152354
   9.63296     29.215029
   9.66053     29.319334
   9.68811     29.464974
   9.71569     29.651422
   9.74327     29.877825
   9.77084     30.142969
   9.79842     30.444982
   9.82600     30.781933
   9.85358     31.150811
   9.88116     31.548834
   9.90873     31.972736
   9.93631     32.418897
   9.96389     32.883350
   9.99147     33.360937
  10.01904     33.844212
  10.04662     34.315641
  10.07420     34.727251
  10.10178     34.937481
  10.12936     34.820971
  10.15693     34.528117
  10.18451     34.183990
  10.21209     33.832493
  10.23967     33.492984
  10.26725     33.192166
  10.29482     32.972923
  10.32240     32.901051
  10.34998     33.003018
  10.37756     33.225187
  10.40513     33.511149
  10.43271     33.821565
  10.46029     34.143708
  10.48787     34.468815
  10.51545     34.790212
  10.54302     35.103126
  10.57060     35.403011
  10.59818     35.685570
  10.62576     35.946840
  10.65333     36.183010
  10.65333     36.183010
  10.66926     36.407133
  10.68518     36.633788
  10.70110     36.860943
  10.71702     37.089599
  10.73294     37.319743
  10.74887     37.551363
  10.76479     37.784444
  10.78071     38.018970
  10.79663     38.254923
  10.81255     38.492284
  10.82848     38.731030
  10.84440     38.971139
  10.86032     39.212581
  10.87624     39.455325
  10.89217     39.699335
  10.90809     39.943266
  10.92401     40.189585
  10.93993     40.437024
  10.95585     40.685519
  10.97178     40.934993
  10.98770     41.185356
  11.00362     41.436502
  11.01954     41.688303
  11.03546     41.940595
  11.05139     42.193181
  11.06731     42.445806
  11.08323     42.698148
  11.09915     42.949780
  11.11507     43.200140
  11.13100     43.448464
  11.14692     43.693669
  11.16284     43.934243
  11.17876     44.167944
  11.19468     44.391416
  11.21061     44.599533
  11.22653     44.784446
  11.24245     44.934598
  11.25837     45.034922
  11.27429     45.070557
 
# Band-Index   14
  11.27429     47.014964
  11.25837     47.002047
  11.24245     46.955341
  11.22653     46.881525
  11.21061     46.783455
  11.19468     46.663810
  11.17876     46.525909
  11.16284     46.372763
  11.14692     46.207005
  11.13100     46.030878
  11.11507     45.846172
  11.09915     45.654436
  11.08323     45.456889
  11.06731     45.254530
  11.05139     45.048180
  11.03546     44.838515
  11.01954     44.633661
  11.00362     44.418589
  10.98770     44.201615
  10.97178     43.983072
  10.95585     43.763234
  10.93993     43.542339
  10.92401     43.320603
  10.90809     43.098204
  10.89217     42.880757
  10.87624     42.657247
  10.86032     42.433490
  10.84440     42.209594
  10.82848     41.985655
  10.81255     41.761758
  10.79663     41.537978
  10.78071     41.314386
  10.76479     41.091043
  10.74887     40.868007
  10.73294     40.645330
  10.71702     40.423061
  10.70110     40.201242
  10.68518     39.979916
  10.66926     39.758816
  10.65333     39.538552
  10.65333     39.538552
  10.62576     39.336295
  10.59818     39.165923
  10.57060     39.028869
  10.54302     38.923789
  10.51545     38.848508
  10.48787     38.800354
  10.46029     38.776392
  10.43271     38.773995
  10.40513     38.790531
  10.37756     38.823367
  10.34998     38.871233
  10.32240     38.932116
  10.29482     39.004586
  10.26725     39.042913
  10.23967     38.513660
  10.21209     37.968888
  10.18451     37.425696
  10.15693     36.905833
  10.12936     36.451408
  10.10178     36.187633
  10.07420     36.265379
  10.04662     36.559993
  10.01904     36.930436
   9.99147     37.329943
   9.96389     37.742804
   9.93631     38.162222
   9.90873     38.585539
   9.88116     39.006925
   9.85358     39.424518
   9.82600     39.834585
   9.79842     40.231673
   9.77084     40.610560
   9.74327     40.959447
   9.71569     41.273339
   9.68811     41.538699
   9.66053     41.746889
   9.63296     41.894027
   9.60538     41.980718
   9.57780     42.009242
   9.57780     42.009242
   9.54596     41.971659
   9.51411     41.862397
   9.48227     41.690543
   9.45042     41.467785
   9.41858     41.206458
   9.38674     40.915201
   9.35489     40.603157
   9.32305     40.266360
   9.29120     39.839111
   9.25936     39.399057
   9.22751     38.952141
   9.19567     38.501848
   9.16383     38.050212
   9.13198     37.598720
   9.10014     37.148485
   9.06829     36.700980
   9.03645     36.255476
   9.00461     35.813431
   8.97276     35.771924
   8.94092     35.718003
   8.90907     35.547704
   8.87723     35.329960
   8.84539     35.650722
   8.81354     36.308585
   8.78170     36.970561
   8.74985     37.639305
   8.71801     38.312102
   8.68617     38.989597
   8.65432     39.668235
   8.62248     40.348502
   8.59063     41.029253
   8.55879     41.709110
   8.52694     42.386288
   8.49510     43.058351
   8.46326     43.721652
   8.43141     44.369825
   8.39957     44.988612
   8.36772     45.532213
   8.33588     45.806824
   8.33588     45.806824
   8.31996     45.695741
   8.30404     45.525175
   8.28811     45.315557
   8.27219     45.082326
   8.25627     44.834342
   8.24035     44.576697
   8.22443     44.312425
   8.20850     44.043471
   8.19258     43.771125
   8.17666     43.496297
   8.16074     43.219662
   8.14482     42.941741
   8.12889     42.662950
   8.11297     42.383620
   8.09705     42.104038
   8.08113     41.824440
   8.06521     41.545034
   8.04928     41.266005
   8.03336     40.987518
   8.01744     40.709726
   8.00152     40.432772
   7.98559     40.156795
   7.96967     39.881931
   7.95375     39.608321
   7.93783     39.336107
   7.92191     39.065462
   7.90598     38.796575
   7.89006     38.530895
   7.87414     38.266255
   7.85822     38.004297
   7.84230     38.102156
   7.82637     38.333081
   7.81045     38.561358
   7.79453     38.784754
   7.77861     38.999521
   7.76269     39.199008
   7.74676     39.371027
   7.73084     39.492332
   7.71492     39.538552
   7.71492     39.538552
   7.68734     39.336295
   7.65976     39.165923
   7.63219     39.028869
   7.60461     38.923789
   7.57703     38.848508
   7.54945     38.800354
   7.52188     38.776392
   7.49430     38.773995
   7.46672     38.790531
   7.43914     38.823367
   7.41156     38.871233
   7.38399     38.932116
   7.35641     39.004586
   7.32883     39.042913
   7.30125     38.513659
   7.27368     37.968877
   7.24610     37.425688
   7.21852     36.905833
   7.19094     36.451408
   7.16336     36.187633
   7.13579     36.265379
   7.10821     36.559993
   7.08063     36.930436
   7.05305     37.329943
   7.02547     37.742804
   6.99790     38.162222
   6.97032     38.585539
   6.94274     39.006925
   6.91516     39.424518
   6.88759     39.834585
   6.86001     40.231673
   6.83243     40.610561
   6.80485     40.959447
   6.77727     41.273339
   6.74970     41.538699
   6.72212     41.746889
   6.69454     41.894027
   6.66696     41.980718
   6.63939     42.009242
   6.63939     42.009242
   6.60038     41.908778
   6.56138     41.634592
   6.52238     41.247018
   6.48338     40.782756
   6.44438     40.278207
   6.40538     39.751754
   6.36638     39.214321
   6.32738     38.672616
   6.28838     38.130944
   6.24938     37.592203
   6.21038     37.058420
   6.17137     36.530551
   6.13237     36.011070
   6.09337     35.500377
   6.05437     35.001154
   6.01537     34.510705
   5.97637     34.032153
   5.93737     33.566833
   5.89837     33.116525
   5.85937     32.683788
   5.82037     32.272492
   5.78137     31.888883
   5.74236     31.543555
   5.70336     31.254812
   5.66436     31.052730
   5.62536     30.975254
   5.58636     31.044420
   5.54736     31.243309
   5.50836     31.533264
   5.46936     31.881060
   5.43036     32.265323
   5.39136     32.132406
   5.35236     31.536444
   5.31335     31.025109
   5.27435     30.625581
   5.23535     30.346545
   5.19635     30.172629
   5.15735     30.080662
   5.11835     30.052264
   5.11835     30.052264
   5.07058     30.095213
   5.02282     30.228832
   4.97505     30.468933
   4.92729     30.820430
   4.87952     31.258089
   4.83175     31.530678
   4.78399     30.816179
   4.73622     31.012501
   4.68846     31.731366
   4.64069     32.433966
   4.59292     32.626478
   4.54516     32.683104
   4.49739     32.754168
   4.44962     32.843186
   4.40186     32.950836
   4.35409     33.077153
   4.30633     33.221420
   4.25856     33.383612
   4.21079     33.562712
   4.16303     33.758387
   4.11526     33.970047
   4.06749     34.197251
   4.01973     34.439431
   3.97196     34.695784
   3.92420     34.965006
   3.87643     35.244708
   3.82866     35.529931
   3.78090     35.808205
   3.73313     36.045402
   3.68537     36.111605
   3.63760     35.694828
   3.58983     35.093032
   3.54207     35.703637
   3.49430     36.323466
   3.44653     36.952014
   3.39877     37.588737
   3.35100     38.233057
   3.30324     38.883896
   3.25547     39.538552
   3.25547     39.538552
   3.23955     39.492332
   3.22363     39.371027
   3.20770     39.199008
   3.19178     38.999521
   3.17586     38.784754
   3.15994     38.561358
   3.14402     38.333081
   3.12809     38.102156
   3.11217     38.004297
   3.09625     38.266255
   3.08033     38.530895
   3.06441     38.796575
   3.04848     39.065461
   3.03256     39.336107
   3.01664     39.608321
   3.00072     39.881931
   2.98480     40.156795
   2.96887     40.432773
   2.95295     40.709726
   2.93703     40.987518
   2.92111     41.266005
   2.90519     41.545034
   2.88926     41.824453
   2.87334     42.104057
   2.85742     42.383622
   2.84150     42.662952
   2.82557     42.941741
   2.80965     43.219665
   2.79373     43.496297
   2.77781     43.771124
   2.76189     44.043474
   2.74596     44.312425
   2.73004     44.576691
   2.71412     44.834324
   2.69820     45.082310
   2.68228     45.315561
   2.66635     45.525222
   2.65043     45.695786
   2.63451     45.806824
   2.63451     45.806824
   2.61199     45.665739
   2.58948     45.528313
   2.56696     45.393554
   2.54444     45.261701
   2.52192     45.132966
   2.49941     45.007533
   2.47689     44.885572
   2.45437     44.767237
   2.43186     44.652676
   2.40934     44.542031
   2.38682     44.435445
   2.36430     44.333063
   2.34179     44.235037
   2.31927     44.141531
   2.29675     44.052728
   2.27424     43.968833
   2.25172     43.890161
   2.22920     43.816212
   2.20668     43.748663
   2.18417     43.687271
   2.16165     43.632526
   2.13913     43.585038
   2.11662     43.545557
   2.09410     43.514742
   2.07158     43.494483
   2.04906     43.485938
   2.02655     43.491053
   2.00403     43.512266
   1.98151     43.910062
   1.95899     44.339819
   1.93648     44.766786
   1.91396     45.180798
   1.89144     45.577186
   1.86893     45.949453
   1.84641     46.288511
   1.82389     46.581779
   1.80137     46.812910
   1.77886     46.968715
   1.75634     47.014964
   1.75634     47.014964
   1.71131     46.423194
   1.66627     45.764657
   1.62124     45.113117
   1.57620     44.470224
   1.53117     43.836126
   1.48613     43.211551
   1.44110     42.595659
   1.39607     41.986954
   1.35103     41.389861
   1.30600     40.802173
   1.26096     40.223843
   1.21593     39.677066
   1.17089     39.541756
   1.12586     39.416854
   1.08082     39.284588
   1.03579     39.116083
   0.99076     38.276477
   0.94572     37.455095
   0.90069     36.652326
   0.85565     35.868571
   0.81062     35.104254
   0.76558     34.359823
   0.72055     33.834295
   0.67552     33.319748
   0.63048     32.804303
   0.58545     32.285891
   0.54041     31.764101
   0.49538     31.238947
   0.45034     30.710872
   0.40531     30.180789
   0.36027     29.650154
   0.31524     29.121070
   0.27021     29.716582
   0.22517     30.194078
   0.18014     30.359709
   0.13510     30.305406
   0.09007     30.186197
   0.04503     30.088510
   0.00000     30.052264
 
# Band-Index   15
   0.00000     35.076163
   0.04503     34.811535
   0.09007     34.212115
   0.13510     33.537458
   0.18014     32.948320
   0.22517     32.619140
   0.27021     32.642407
   0.31524     32.914550
   0.36027     33.316778
   0.40531     33.789119
   0.45034     34.303218
   0.49538     34.843721
   0.54041     35.400932
   0.58545     35.967882
   0.63048     36.539042
   0.67552     37.109756
   0.72055     37.675930
   0.76558     38.233873
   0.81062     38.572290
   0.85565     38.679028
   0.90069     38.791013
   0.94572     38.907965
   0.99076     39.029526
   1.03579     39.155251
   1.08082     39.973507
   1.12586     40.848358
   1.17089     41.740624
   1.21593     42.651218
   1.26096     43.161553
   1.30600     43.472172
   1.35103     43.758523
   1.39607     44.016483
   1.44110     44.252232
   1.48613     44.461095
   1.53117     44.641528
   1.57620     44.792875
   1.62124     45.113244
   1.66627     45.765025
   1.71131     46.424213
   1.75634     47.173531
   1.75634     47.173531
   1.77886     47.018867
   1.80137     47.024147
   1.82389     47.035475
   1.84641     47.051339
   1.86893     47.071532
   1.89144     47.096010
   1.91396     47.124605
   1.93648     47.157124
   1.95899     47.165939
   1.98151     47.162647
   2.00403     47.159089
   2.02655     47.155282
   2.04906     47.151234
   2.07158     47.146754
   2.09410     47.142259
   2.11662     47.138115
   2.13913     47.133249
   2.16165     47.122828
   2.18417     47.117633
   2.20668     47.112411
   2.22920     47.107195
   2.25172     47.102018
   2.27424     47.096562
   2.29675     47.091404
   2.31927     47.086566
   2.34179     47.081856
   2.36430     47.077303
   2.38682     47.073118
   2.40934     47.069212
   2.43186     47.065442
   2.45437     46.950661
   2.47689     46.810604
   2.49941     46.668416
   2.52192     46.522643
   2.54444     46.377958
   2.56696     46.232830
   2.58948     46.087965
   2.61199     45.945920
   2.63451     45.806956
   2.63451     45.806956
   2.65043     45.872444
   2.66635     45.935933
   2.68228     45.994035
   2.69820     46.046016
   2.71412     46.091007
   2.73004     46.128002
   2.74596     46.155677
   2.76189     46.172596
   2.77781     46.176994
   2.79373     46.166915
   2.80965     46.140170
   2.82557     46.094553
   2.84150     46.028148
   2.85742     45.939567
   2.87334     45.828348
   2.88926     45.695028
   2.90519     45.541109
   2.92111     45.368779
   2.93703     45.180545
   2.95295     44.978945
   2.96887     44.766343
   2.98480     44.544828
   3.00072     44.316189
   3.01664     44.081938
   3.03256     43.843344
   3.04848     43.601504
   3.06441     43.357365
   3.08033     43.115654
   3.09625     42.869273
   3.11217     42.623125
   3.12809     42.378154
   3.14402     42.135525
   3.15994     41.896823
   3.17586     41.664417
   3.19178     41.442158
   3.20770     41.236779
   3.22363     41.060531
   3.23955     40.933888
   3.25547     40.886802
   3.25547     40.886802
   3.30324     40.373629
   3.35100     39.878294
   3.39877     39.402722
   3.44653     38.949730
   3.49430     38.524251
   3.54207     38.137217
   3.58983     37.817807
   3.63760     37.678022
   3.68537     38.015670
   3.73313     38.858446
   3.78090     39.885971
   3.82866     40.961311
   3.87643     41.475280
   3.92420     40.907270
   3.97196     40.348372
   4.01973     39.798430
   4.06749     39.256973
   4.11526     38.723127
   4.16303     38.195508
   4.21079     37.672062
   4.25856     37.149938
   4.30633     36.619455
   4.35409     36.087514
   4.40186     35.542335
   4.44962     34.977533
   4.49739     34.384047
   4.54516     33.764065
   4.59292     33.113271
   4.64069     32.575081
   4.68846     32.506715
   4.73622     32.375069
   4.78399     32.117036
   4.83175     31.720256
   4.87952     32.248347
   4.92729     32.963185
   4.97505     33.662952
   5.02282     34.318738
   5.07058     34.850670
   5.11835     35.076171
   5.11835     35.076171
   5.15735     34.973111
   5.19635     34.710890
   5.23535     34.351274
   5.27435     33.945574
   5.31335     33.521716
   5.35236     33.094282
   5.39136     32.672798
   5.43036     32.265323
   5.46936     31.881060
   5.50836     31.533264
   5.54736     31.243309
   5.58636     31.044420
   5.62536     30.975254
   5.66436     31.052730
   5.70336     31.254812
   5.74236     31.543555
   5.78137     31.888883
   5.82037     32.272492
   5.85937     32.683788
   5.89837     33.116525
   5.93737     33.566833
   5.97637     34.032153
   6.01537     34.510706
   6.05437     35.001155
   6.09337     35.500377
   6.13237     36.011070
   6.17137     36.530552
   6.21038     37.058421
   6.24938     37.592205
   6.28838     38.130950
   6.32738     38.672616
   6.36638     39.214321
   6.40538     39.751755
   6.44438     40.278207
   6.48338     40.782756
   6.52238     41.247018
   6.56138     41.634593
   6.60038     41.908783
   6.63939     42.009242
   6.63939     42.009242
   6.66696     41.996068
   6.69454     41.957238
   6.72212     41.894690
   6.74970     41.811234
   6.77727     41.710116
   6.80485     41.594626
   6.83243     41.470080
   6.86001     41.334672
   6.88759     41.193064
   6.91516     41.047245
   6.94274     40.898881
   6.97032     40.749371
   6.99790     40.599869
   7.02547     40.451394
   7.05305     40.304796
   7.08063     40.160263
   7.10821     40.020994
   7.13579     39.884276
   7.16336     39.752075
   7.19094     39.624970
   7.21852     39.503544
   7.24610     39.388399
   7.27368     39.280177
   7.30125     39.179589
   7.32883     39.087425
   7.35641     39.524542
   7.38399     39.905520
   7.41156     40.140891
   7.43914     40.253923
   7.46672     40.302093
   7.49430     40.324076
   7.52188     40.339813
   7.54945     40.360517
   7.57703     40.392199
   7.60461     40.440585
   7.63219     40.510275
   7.65976     40.605474
   7.68734     40.729966
   7.71492     40.886802
   7.71492     40.886802
   7.73084     40.933888
   7.74676     41.060531
   7.76269     41.236779
   7.77861     41.442159
   7.79453     41.664418
   7.81045     41.896825
   7.82637     42.135526
   7.84230     42.378154
   7.85822     42.623125
   7.87414     42.869273
   7.89006     43.115655
   7.90598     43.357366
   7.92191     43.601505
   7.93783     43.843346
   7.95375     44.081940
   7.96967     44.316191
   7.98559     44.544830
   8.00152     44.766346
   8.01744     44.978947
   8.03336     45.180545
   8.04928     45.368780
   8.06521     45.541118
   8.08113     45.695054
   8.09705     45.828473
   8.11297     45.939857
   8.12889     46.028350
   8.14482     46.094798
   8.16074     46.140528
   8.17666     46.168179
   8.19258     46.177872
   8.20850     46.173027
   8.22443     46.156365
   8.24035     46.130521
   8.25627     46.093923
   8.27219     46.048800
   8.28811     45.994094
   8.30404     45.936035
   8.31996     45.872470
   8.33588     45.806956
   8.33588     45.806956
   8.36772     45.780479
   8.39957     45.706897
   8.43141     45.580534
   8.46326     45.396746
   8.49510     45.151169
   8.52694     44.841478
   8.55879     44.468930
   8.59063     44.038749
   8.62248     43.559123
   8.65432     43.039527
   8.68617     42.495267
   8.71801     41.921731
   8.74985     41.333400
   8.78170     40.736491
   8.81354     40.137262
   8.84539     39.541702
   8.87723     38.957855
   8.90907     38.403212
   8.94092     37.908785
   8.97276     37.544660
   9.00461     37.406372
   9.03645     37.489842
   9.06829     37.699733
   9.10014     37.971030
   9.13198     38.273402
   9.16383     38.593962
   9.19567     38.925552
   9.22751     39.263508
   9.25936     39.605959
   9.29120     39.945742
   9.32305     40.276950
   9.35489     40.674847
   9.38674     41.051398
   9.41858     41.378800
   9.45042     41.636575
   9.48227     41.819469
   9.51411     41.932336
   9.54596     41.991198
   9.57780     42.009242
   9.57780     42.009242
   9.60538     41.996068
   9.63296     41.957239
   9.66053     41.894690
   9.68811     41.811239
   9.71569     41.710119
   9.74327     41.594628
   9.77084     41.470081
   9.79842     41.334673
   9.82600     41.193065
   9.85358     41.047246
   9.88116     40.898882
   9.90873     40.749372
   9.93631     40.599874
   9.96389     40.451397
   9.99147     40.304799
  10.01904     40.160265
  10.04662     40.020995
  10.07420     39.884277
  10.10178     39.752076
  10.12936     39.624971
  10.15693     39.503545
  10.18451     39.388407
  10.21209     39.280182
  10.23967     39.179589
  10.26725     39.087425
  10.29482     39.524542
  10.32240     39.905522
  10.34998     40.140891
  10.37756     40.253923
  10.40513     40.302093
  10.43271     40.324076
  10.46029     40.339813
  10.48787     40.360517
  10.51545     40.392198
  10.54302     40.440585
  10.57060     40.510274
  10.59818     40.605474
  10.62576     40.729966
  10.65333     40.886802
  10.65333     40.886802
  10.66926     41.061537
  10.68518     41.239980
  10.70110     41.418109
  10.71702     41.597828
  10.73294     41.779062
  10.74887     41.961733
  10.76479     42.145756
  10.78071     42.331038
  10.79663     42.517480
  10.81255     42.704972
  10.82848     42.893392
  10.84440     43.082603
  10.86032     43.272460
  10.87624     43.462795
  10.89217     43.653426
  10.90809     43.840625
  10.92401     44.031060
  10.93993     44.221084
  10.95585     44.410402
  10.97178     44.598677
  10.98770     44.785526
  11.00362     44.970519
  11.01954     45.153159
  11.03546     45.332059
  11.05139     45.508145
  11.06731     45.679955
  11.08323     45.846652
  11.09915     46.007258
  11.11507     46.160858
  11.13100     46.306414
  11.14692     46.441849
  11.16284     46.566718
  11.17876     46.679177
  11.19468     46.777834
  11.21061     46.861303
  11.22653     46.927956
  11.24245     46.979979
  11.25837     47.132292
  11.27429     47.173531
 
# Band-Index   16
  11.27429     47.180689
  11.25837     47.193476
  11.24245     47.228224
  11.22653     47.286164
  11.21061     47.366217
  11.19468     47.466856
  11.17876     47.586773
  11.16284     47.724496
  11.14692     47.878353
  11.13100     48.047827
  11.11507     48.229609
  11.09915     48.423458
  11.08323     48.629408
  11.06731     48.844612
  11.05139     49.068797
  11.03546     49.301508
  11.01954     49.541819
  11.00362     49.789166
  10.98770     50.042546
  10.97178     50.303945
  10.95585     50.583025
  10.93993     50.864932
  10.92401     50.913656
  10.90809     50.724227
  10.89217     50.543181
  10.87624     50.363525
  10.86032     50.185524
  10.84440     50.009142
  10.82848     49.834121
  10.81255     49.660443
  10.79663     49.488198
  10.78071     49.317405
  10.76479     49.148095
  10.74887     48.980315
  10.73294     48.814115
  10.71702     48.649534
  10.70110     48.486605
  10.68518     48.325348
  10.66926     48.164964
  10.65333     48.007093
  10.65333     48.006988
  10.62576     47.674549
  10.59818     47.126944
  10.57060     46.512007
  10.54302     45.876373
  10.51545     45.235845
  10.48787     44.597808
  10.46029     43.966807
  10.43271     43.350692
  10.40513     42.758409
  10.37756     42.208743
  10.34998     41.740185
  10.32240     41.409497
  10.29482     41.239816
  10.26725     41.186481
  10.23967     41.197426
  10.21209     41.244132
  10.18451     41.310979
  10.15693     41.391644
  10.12936     41.482040
  10.10178     41.579706
  10.07420     41.682996
  10.04662     41.790723
  10.01904     41.901976
   9.99147     42.016014
   9.96389     42.132278
   9.93631     42.250429
   9.90873     42.371270
   9.88116     42.492830
   9.85358     42.616716
   9.82600     42.744073
   9.79842     42.876789
   9.77084     43.018424
   9.74327     43.172604
   9.71569     43.345793
   9.68811     43.540629
   9.66053     43.753259
   9.63296     43.965625
   9.60538     44.136936
   9.57780     44.205960
   9.57780     44.205960
   9.54596     44.115527
   9.51411     43.903136
   9.48227     43.663431
   9.45042     43.459262
   9.41858     43.319379
   9.38674     43.245138
   9.35489     43.223928
   9.32305     43.241940
   9.29120     43.291148
   9.25936     43.360694
   9.22751     43.448549
   9.19567     43.552564
   9.16383     43.670135
   9.13198     43.801219
   9.10014     43.944668
   9.06829     44.101185
   9.03645     44.267870
   9.00461     44.445737
   8.97276     44.634571
   8.94092     44.834224
   8.90907     45.044540
   8.87723     45.265465
   8.84539     45.497309
   8.81354     45.739402
   8.78170     45.990899
   8.74985     46.253732
   8.71801     46.526926
   8.68617     46.811492
   8.65432     47.105274
   8.62248     47.412261
   8.59063     47.723104
   8.55879     48.039249
   8.52694     48.351885
   8.49510     48.620633
   8.46326     48.663076
   8.43141     48.293447
   8.39957     47.787856
   8.36772     47.304197
   8.33588     47.048319
   8.33588     47.048319
   8.31996     47.083982
   8.30404     47.177886
   8.28811     47.305838
   8.27219     47.454877
   8.25627     47.613685
   8.24035     47.777939
   8.22443     47.939822
   8.20850     48.104205
   8.19258     48.271319
   8.17666     48.440739
   8.16074     48.588089
   8.14482     48.703555
   8.12889     48.603599
   8.11297     48.537270
   8.09705     48.435002
   8.08113     48.274026
   8.06521     48.188175
   8.04928     48.133879
   8.03336     48.090496
   8.01744     48.059128
   8.00152     48.036919
   7.98559     48.020440
   7.96967     48.008194
   7.95375     48.000584
   7.93783     47.995722
   7.92191     47.993035
   7.90598     47.992068
   7.89006     47.993337
   7.87414     47.994593
   7.85822     47.996337
   7.84230     47.998374
   7.82637     48.000503
   7.81045     48.002698
   7.79453     48.004660
   7.77861     48.006459
   7.76269     48.007901
   7.74676     48.009087
   7.73084     48.006861
   7.71492     48.007093
   7.71492     48.007093
   7.68734     47.674555
   7.65976     47.126947
   7.63219     46.512008
   7.60461     45.876377
   7.57703     45.235829
   7.54945     44.597808
   7.52188     43.966808
   7.49430     43.350692
   7.46672     42.758410
   7.43914     42.208744
   7.41156     41.740198
   7.38399     41.409496
   7.35641     41.239817
   7.32883     41.186482
   7.30125     41.197426
   7.27368     41.244127
   7.24610     41.310971
   7.21852     41.391643
   7.19094     41.482038
   7.16336     41.579704
   7.13579     41.682994
   7.10821     41.790720
   7.08063     41.901972
   7.05305     42.016010
   7.02547     42.132273
   6.99790     42.250422
   6.97032     42.371271
   6.94274     42.492831
   6.91516     42.616715
   6.88759     42.744073
   6.86001     42.876789
   6.83243     43.018423
   6.80485     43.172600
   6.77727     43.345784
   6.74970     43.540586
   6.72212     43.753269
   6.69454     43.965659
   6.66696     44.136937
   6.63939     44.205960
   6.63939     44.205960
   6.60038     44.158033
   6.56138     44.018071
   6.52238     43.799624
   6.48338     43.516813
   6.44438     43.186357
   6.40538     42.822396
   6.36638     42.436484
   6.32738     42.037666
   6.28838     41.632865
   6.24938     41.227290
   6.21038     40.824910
   6.17137     40.423501
   6.13237     40.035760
   6.09337     39.657807
   6.05437     39.290873
   6.01537     38.935039
   5.97637     38.590648
   5.93737     38.257392
   5.89837     37.934560
   5.85937     37.620884
   5.82037     37.314368
   5.78137     37.011900
   5.74236     36.708621
   5.70336     36.396538
   5.66436     36.062968
   5.62536     35.687499
   5.58636     35.244116
   5.54736     34.714376
   5.50836     34.105843
   5.46936     33.449300
   5.43036     32.780575
   5.39136     32.672798
   5.35236     33.094282
   5.31335     33.521716
   5.27435     33.945574
   5.23535     34.351275
   5.19635     34.710904
   5.15735     34.973181
   5.11835     35.076234
   5.11835     35.076234
   5.07058     35.010820
   5.02282     34.840025
   4.97505     34.617314
   4.92729     34.399559
   4.87952     34.233982
   4.83175     34.173955
   4.78399     34.289272
   4.73622     34.632115
   4.68846     35.170299
   4.64069     35.821593
   4.59292     36.520801
   4.54516     37.226323
   4.49739     37.909906
   4.44962     38.551187
   4.40186     39.136991
   4.35409     39.662146
   4.30633     40.125450
   4.25856     40.540590
   4.21079     40.913237
   4.16303     41.253220
   4.11526     41.567790
   4.06749     41.861938
   4.01973     42.135566
   3.97196     42.372908
   3.92420     42.468133
   3.87643     41.960527
   3.82866     42.052287
   3.78090     42.637496
   3.73313     43.231093
   3.68537     43.831988
   3.63760     44.451389
   3.58983     45.090133
   3.54207     45.473468
   3.49430     45.856311
   3.44653     46.255238
   3.39877     46.670452
   3.35100     47.101837
   3.30324     47.544392
   3.25547     48.006988
   3.25547     48.006988
   3.23955     48.006796
   3.22363     48.009064
   3.20770     48.007896
   3.19178     48.006390
   3.17586     48.004622
   3.15994     48.002629
   3.14402     48.000490
   3.12809     47.998340
   3.11217     47.996235
   3.09625     47.994397
   3.08033     47.993078
   3.06441     47.991514
   3.04848     47.992172
   3.03256     47.994350
   3.01664     47.998811
   3.00072     48.006255
   2.98480     48.017548
   2.96887     48.034098
   2.95295     48.057306
   2.93703     48.088952
   2.92111     48.131074
   2.90519     48.185880
   2.88926     48.255799
   2.87334     48.342173
   2.85742     48.446074
   2.84150     48.567790
   2.82557     48.705850
   2.80965     48.856433
   2.79373     48.446284
   2.77781     48.282132
   2.76189     48.152249
   2.74596     47.983757
   2.73004     47.832304
   2.71412     47.610750
   2.69820     47.452528
   2.68228     47.305094
   2.66635     47.177219
   2.65043     47.083955
   2.63451     47.048319
   2.63451     47.048319
   2.61199     47.052378
   2.58948     47.049059
   2.56696     47.051541
   2.54444     47.051902
   2.52192     47.053539
   2.49941     47.056302
   2.47689     47.058984
   2.45437     47.062122
   2.43186     47.089847
   2.40934     47.221055
   2.38682     47.337819
   2.36430     47.439731
   2.34179     47.524157
   2.31927     47.600171
   2.29675     47.661495
   2.27424     47.680843
   2.25172     47.686103
   2.22920     47.683414
   2.20668     47.666720
   2.18417     47.638885
   2.16165     47.602628
   2.13913     47.560746
   2.11662     47.514684
   2.09410     47.465771
   2.07158     47.416874
   2.04906     47.368383
   2.02655     47.321175
   2.00403     47.275970
   1.98151     47.233335
   1.95899     47.193335
   1.93648     47.168946
   1.91396     47.171646
   1.89144     47.174009
   1.86893     47.176032
   1.84641     47.177696
   1.82389     47.178986
   1.80137     47.179967
   1.77886     47.181771
   1.75634     47.180689
   1.75634     47.180689
   1.71131     47.780676
   1.66627     48.463809
   1.62124     49.156255
   1.57620     49.858823
   1.53117     49.385471
   1.48613     48.398861
   1.44110     47.412916
   1.39607     46.435403
   1.35103     45.468767
   1.30600     44.515080
   1.26096     43.575526
   1.21593     42.826954
   1.17089     42.467991
   1.12586     42.085728
   1.08082     41.679613
   1.03579     41.249998
   0.99076     40.797377
   0.94572     40.322616
   0.90069     39.826981
   0.85565     39.312166
   0.81062     38.780265
   0.76558     38.471010
   0.72055     38.376048
   0.67552     38.285441
   0.63048     38.208521
   0.58545     37.858738
   0.54041     37.441398
   0.49538     37.058265
   0.45034     36.709666
   0.40531     36.395720
   0.36027     36.116369
   0.31524     35.871281
   0.27021     35.660057
   0.22517     35.482284
   0.18014     35.332702
   0.13510     35.220413
   0.09007     35.140395
   0.04503     35.092292
   0.00000     35.076234
